* Measurement data measured by REW V5.30 beta 3
* Source: Microphone (4- USB Audio Device), MICROPHONE (Master Volume), R, volume: 0.250
* Format: 256k Log Swept Sine, 1 sweep at -12.0 dBFS with no timing reference
* Dated: 29-Nov-2023 17:12:32
* REW Settings:
*  C-weighting compensation: Off
*  Target level: 75.0 dB
* Note: 
* Measurement: 1More Q30 Pistonbuds Pro
* Smoothing: 1/12 octave
* Frequency Step: 1/48 octave
* Start Frequency: 20.300 Hz
*
* Freq(Hz)	SPL(dB)	Phase(degrees)
20.299999	74.809	99.2915
20.600000	74.849	98.0480
20.900000	74.899	96.4591
21.200001	74.953	94.7149
21.400000	74.992	93.5038
21.799999	75.082	91.0105
22.000000	75.133	89.7454
22.400000	75.244	87.2291
22.700001	75.331	85.4000
23.000000	75.419	83.6595
23.299999	75.504	82.0305
23.600000	75.585	80.5201
24.000000	75.682	78.6731
24.299999	75.747	77.3843
24.700001	75.821	75.7426
25.000000	75.867	74.5388
25.400000	75.917	72.9429
25.799999	75.956	71.3520
26.200001	75.988	69.7805
26.500000	76.009	68.6291
26.900000	76.035	67.1473
27.200001	76.056	66.0820
27.600000	76.084	64.7212
28.000000	76.113	63.4171
28.500000	76.147	61.8435
29.000000	76.175	60.3159
29.500000	76.196	58.8363
30.000000	76.214	57.4179
30.400000	76.227	56.3332
30.700001	76.237	55.5484
31.100000	76.249	54.5371
31.500000	76.261	53.5615
32.000000	76.273	52.3842
32.500000	76.283	51.2415
33.000000	76.293	50.1176
33.500000	76.303	49.0038
34.000000	76.312	47.9093
34.500000	76.320	46.8567
35.000000	76.329	45.8609
35.500000	76.341	44.9133
36.000000	76.355	43.9893
36.500000	76.369	43.0713
37.000000	76.381	42.1612
37.500000	76.391	41.2724
38.200001	76.406	40.0778
38.700001	76.418	39.2557
39.500000	76.440	37.9827
40.000000	76.453	37.2072
40.599998	76.471	36.2800
41.200001	76.489	35.3395
41.799999	76.504	34.3925
42.500000	76.518	33.3171
43.099998	76.532	32.4349
43.700001	76.549	31.5704
44.400002	76.571	30.5620
45.000000	76.589	29.7084
45.500000	76.604	29.0151
46.200001	76.627	28.0636
46.799999	76.649	27.2499
47.500000	76.671	26.3060
48.200001	76.690	25.3790
48.700001	76.703	24.7173
49.400002	76.716	23.7722
50.000000	76.721	22.9495
50.799999	76.718	21.8670
51.500000	76.714	20.9411
52.200001	76.710	20.0240
53.000000	76.707	18.9844
53.799999	76.702	17.9531
54.500000	76.698	17.0488
55.200001	76.691	16.1413
56.000000	76.681	15.1114
57.000000	76.663	13.8450
58.000000	76.639	12.5897
59.000000	76.610	11.3378
60.000000	76.576	10.1000
60.799999	76.548	9.1241
61.500000	76.521	8.2811
62.200001	76.492	7.4496
63.000000	76.456	6.5174
64.000000	76.406	5.3854
65.000000	76.353	4.2806
66.000000	76.297	3.1821
67.000000	76.235	2.0955
68.000000	76.168	1.0480
69.000000	76.098	0.0439
70.000000	76.026	-0.9374
71.000000	75.953	-1.9037
72.000000	75.876	-2.8390
73.000000	75.793	-3.7285
74.000000	75.705	-4.5742
75.000000	75.615	-5.3849
76.199997	75.508	-6.3182
77.500000	75.393	-7.2789
78.800003	75.273	-8.1915
80.000000	75.158	-9.0056
81.199997	75.044	-9.7984
82.500000	74.920	-10.6277
83.800003	74.793	-11.4124
85.000000	74.674	-12.0907
86.199997	74.554	-12.7120
87.500000	74.426	-13.3243
88.500000	74.329	-13.7678
90.000000	74.182	-14.4086
91.199997	74.065	-14.9023
92.500000	73.940	-15.4172
93.800003	73.815	-15.9021
95.000000	73.700	-16.3149
96.199997	73.586	-16.7001
97.500000	73.466	-17.0872
98.800003	73.344	-17.4337
100.000000	73.230	-17.7117
101.500000	73.091	-18.0239
103.000000	72.958	-18.3217
104.400002	72.834	-18.5833
106.000000	72.692	-18.8478
107.500000	72.561	-19.0698
109.000000	72.433	-19.2851
110.599998	72.297	-19.4901
112.000000	72.179	-19.6328
113.800003	72.031	-19.7845
115.000000	71.934	-19.8717
117.199997	71.757	-19.9937
118.000000	71.694	-20.0240
120.599998	71.493	-20.0554
122.000000	71.388	-20.0454
124.099998	71.232	-20.0045
125.000000	71.166	-19.9753
126.500000	71.056	-19.9141
128.000000	70.950	-19.8360
131.500000	70.729	-19.5621
132.000000	70.700	-19.5140
134.000000	70.588	-19.3046
136.000000	70.482	-19.0736
138.000000	70.379	-18.8410
140.000000	70.274	-18.5925
143.000000	70.120	-18.1968
145.000000	70.023	-17.9275
147.500000	69.914	-17.5671
150.000000	69.815	-17.1862
152.500000	69.721	-16.8157
155.000000	69.628	-16.4501
157.500000	69.538	-16.0829
160.000000	69.455	-15.7117
162.500000	69.375	-15.3239
165.000000	69.297	-14.9020
167.500000	69.222	-14.4526
170.000000	69.152	-13.9709
172.500000	69.087	-13.4808
175.000000	69.027	-12.9905
177.500000	68.972	-12.4982
180.000000	68.921	-12.0143
182.500000	68.872	-11.5362
185.000000	68.823	-11.0734
187.500000	68.776	-10.6420
190.000000	68.735	-10.2322
192.500000	68.701	-9.8276
195.000000	68.671	-9.4367
197.500000	68.644	-9.0582
200.000000	68.619	-8.6842
203.000000	68.592	-8.2456
206.000000	68.565	-7.8219
209.000000	68.537	-7.3886
212.000000	68.512	-6.9343
214.000000	68.498	-6.6231
218.000000	68.475	-5.9839
220.000000	68.464	-5.6602
224.000000	68.438	-5.0083
227.000000	68.417	-4.5165
230.000000	68.395	-4.0266
233.000000	68.370	-3.5368
236.000000	68.346	-3.0407
240.000000	68.312	-2.3443
243.000000	68.285	-1.7753
247.000000	68.247	-0.9423
250.000000	68.222	-0.2623
254.000000	68.200	0.6946
258.000000	68.200	1.6543
262.000000	68.224	2.5236
265.000000	68.253	3.0770
269.000000	68.293	3.6970
272.000000	68.316	4.1000
276.000000	68.333	4.5874
280.000000	68.334	5.0467
285.000000	68.314	5.6299
290.000000	68.282	6.2284
295.000000	68.247	6.7855
300.000000	68.211	7.3020
304.000000	68.180	7.7245
307.000000	68.157	8.0586
311.000000	68.125	8.5210
315.000000	68.092	8.9885
320.000000	68.050	9.5788
325.000000	68.010	10.1848
330.000000	67.974	10.7846
335.000000	67.941	11.3476
340.000000	67.909	11.8425
345.000000	67.876	12.2728
350.000000	67.843	12.6552
355.000000	67.809	12.9956
360.000000	67.776	13.2835
365.000000	67.746	13.5163
370.000000	67.721	13.7128
375.000000	67.701	13.8842
382.000000	67.676	14.0874
387.000000	67.659	14.2208
395.000000	67.633	14.4677
400.000000	67.614	14.6382
406.000000	67.591	14.8546
412.000000	67.567	15.0972
418.000000	67.542	15.3514
425.000000	67.516	15.6263
431.000000	67.495	15.8257
437.000000	67.474	16.0015
444.000000	67.450	16.1928
450.000000	67.432	16.3503
455.000000	67.417	16.4874
462.000000	67.397	16.7029
468.000000	67.381	16.9286
475.000000	67.366	17.2604
482.000000	67.355	17.6605
487.000000	67.350	17.9659
494.000000	67.344	18.3828
500.000000	67.342	18.7065
508.000000	67.340	19.0689
515.000000	67.338	19.3119
522.000000	67.334	19.4808
530.000000	67.327	19.5863
538.000000	67.318	19.6203
545.000000	67.310	19.6066
552.000000	67.305	19.5720
560.000000	67.304	19.5385
570.000000	67.305	19.5266
580.000000	67.304	19.5268
590.000000	67.298	19.5169
600.000000	67.289	19.4956
608.000000	67.282	19.4698
615.000000	67.278	19.4434
622.000000	67.275	19.4294
630.000000	67.276	19.4454
640.000000	67.277	19.4952
650.000000	67.276	19.5483
660.000000	67.271	19.6122
670.000000	67.267	19.7159
680.000000	67.269	19.8521
690.000000	67.278	19.9940
700.000000	67.286	20.1226
710.000000	67.289	20.2275
720.000000	67.289	20.3206
730.000000	67.288	20.4316
740.000000	67.289	20.5630
750.000000	67.290	20.7000
762.000000	67.287	20.8784
775.000000	67.281	21.0848
788.000000	67.279	21.3111
800.000000	67.286	21.5815
812.000000	67.305	21.9441
825.000000	67.340	22.4038
838.000000	67.384	22.8634
850.000000	67.424	23.2323
862.000000	67.462	23.5340
875.000000	67.501	23.8110
885.000000	67.532	24.0028
900.000000	67.579	24.2484
912.000000	67.619	24.4000
925.000000	67.659	24.4976
938.000000	67.691	24.5071
950.000000	67.717	24.4580
962.000000	67.742	24.3723
975.000000	67.770	24.2387
988.000000	67.796	24.0767
1000.000000	67.819	23.9268
1015.000000	67.852	23.7388
1030.000000	67.890	23.5344
1044.000000	67.926	23.3401
1060.000000	67.963	23.1226
1075.000000	67.999	22.9195
1090.000000	68.041	22.7140
1106.000000	68.092	22.4653
1120.000000	68.140	22.1910
1138.000000	68.202	21.7497
1150.000000	68.242	21.4181
1172.000000	68.314	20.7998
1180.000000	68.338	20.5912
1206.000000	68.416	20.0393
1220.000000	68.461	19.8386
1241.000000	68.544	19.6243
1250.000000	68.588	19.5306
1265.000000	68.672	19.3067
1280.000000	68.766	18.9258
1315.000000	68.980	17.1830
1320.000000	69.008	16.8446
1340.000000	69.111	15.3481
1360.000000	69.199	13.7402
1380.000000	69.274	12.1051
1400.000000	69.335	10.4332
1430.000000	69.408	7.8127
1450.000000	69.449	5.9986
1475.000000	69.491	3.7380
1500.000000	69.527	1.6027
1525.000000	69.570	-0.1912
1550.000000	69.629	-1.4291
1575.000000	69.708	-2.1047
1600.000000	69.802	-2.3750
1625.000000	69.903	-2.4532
1650.000000	70.013	-2.4793
1675.000000	70.136	-2.5143
1700.000000	70.274	-2.5652
1725.000000	70.427	-2.6027
1750.000000	70.589	-2.6130
1775.000000	70.756	-2.6085
1800.000000	70.924	-2.6092
1825.000000	71.090	-2.6572
1850.000000	71.253	-2.8005
1875.000000	71.416	-3.0601
1900.000000	71.581	-3.4179
1925.000000	71.750	-3.7984
1950.000000	71.921	-4.0990
1975.000000	72.096	-4.2381
2000.000000	72.274	-4.1905
2030.000000	72.494	-3.9921
2060.000000	72.712	-3.8550
2090.000000	72.922	-3.9189
2120.000000	73.131	-4.1751
2140.000000	73.272	-4.4082
2180.000000	73.560	-4.8996
2200.000000	73.708	-5.1207
2240.000000	74.009	-5.4786
2270.000000	74.237	-5.7143
2300.000000	74.468	-6.0394
2330.000000	74.693	-6.6150
2360.000000	74.908	-7.5481
2400.000000	75.183	-9.2679
2430.000000	75.387	-10.7479
2470.000000	75.650	-12.7719
2500.000000	75.836	-14.2545
2540.000000	76.066	-16.1285
2580.000000	76.280	-17.9117
2620.000000	76.479	-19.7261
2650.000000	76.620	-21.1778
2690.000000	76.803	-23.2927
2720.000000	76.932	-25.0481
2760.000000	77.090	-27.6373
2800.000000	77.230	-30.4387
2850.000000	77.385	-34.0261
2900.000000	77.515	-37.4410
2950.000000	77.626	-40.4369
3000.000000	77.713	-43.0189
3040.000000	77.759	-44.9115
3070.000000	77.781	-46.2879
3110.000000	77.791	-48.1180
3150.000000	77.779	-49.9505
3200.000000	77.740	-52.1186
3250.000000	77.686	-54.0093
3300.000000	77.617	-55.6872
3350.000000	77.529	-57.3270
3400.000000	77.426	-58.9936
3450.000000	77.313	-60.6241
3500.000000	77.194	-62.1399
3550.000000	77.070	-63.5079
3600.000000	76.940	-64.7264
3650.000000	76.808	-65.7930
3700.000000	76.674	-66.7253
3750.000000	76.534	-67.5176
3820.000000	76.323	-67.9203
3870.000000	76.176	-66.9466
3950.000000	75.989	-62.0768
4000.000000	75.888	-57.3309
4060.000000	75.772	-50.7208
4120.000000	75.673	-43.8148
4180.000000	75.583	-37.3708
4250.000000	75.486	-31.0014
4310.000000	75.410	-26.3932
4370.000000	75.347	-22.0787
4440.000000	75.297	-16.8604
4500.000000	75.271	-12.0839
4550.000000	75.253	-7.9538
4620.000000	75.227	-2.1293
4680.000000	75.195	2.7346
4750.000000	75.133	8.1824
4820.000000	75.041	13.5106
4870.000000	74.955	17.3092
4940.000000	74.797	22.6142
5000.000000	74.628	27.1247
5080.000000	74.358	33.0780
5150.000000	74.074	38.3163
5220.000000	73.744	43.7694
5300.000000	73.314	50.4295
5380.000000	72.831	57.5622
5450.000000	72.370	64.2606
5520.000000	71.889	71.6017
5600.000000	71.334	80.9339
5700.000000	70.662	93.7726
5800.000000	70.045	107.3200
5900.000000	69.511	121.2959
6000.000000	69.080	135.8953
6080.000000	68.818	148.1759
6150.000000	68.645	159.2639
6220.000000	68.520	170.5537
6300.000000	68.427	-176.3888
6400.000000	68.367	-160.0812
6500.000000	68.351	-143.9621
6600.000000	68.374	-128.0341
6700.000000	68.428	-112.4230
6800.000000	68.520	-96.9399
6900.000000	68.664	-81.3268
7000.000000	68.862	-65.6634
7100.000000	69.118	-49.9829
7200.000000	69.443	-34.1525
7300.000000	69.839	-18.2087
7400.000000	70.302	-2.3973
7500.000000	70.821	12.7759
7620.000000	71.479	29.3553
7750.000000	72.146	44.6407
7880.000000	72.617	57.0133
8000.000000	72.732	66.4501
8120.000000	72.450	75.3040
8250.000000	71.676	85.7537
8380.000000	70.494	98.3771
8500.000000	69.178	112.8369
8620.000000	67.790	130.3461
8750.000000	66.343	152.6566
8850.000000	65.336	171.8982
9000.000000	64.056	-157.1824
9120.000000	63.238	-131.8022
9250.000000	62.549	-104.0024
9380.000000	62.052	-75.4994
9500.000000	61.755	-48.4875
9620.000000	61.597	-21.2360
9750.000000	61.558	8.3718
9880.000000	61.633	37.9656
10000.000000	61.779	64.5690
10150.000000	62.030	95.8618
10300.000000	62.335	125.3070
10440.000000	62.655	152.3193
10600.000000	63.049	-176.3835
10750.000000	63.430	-146.0520
10900.000000	63.821	-114.3379
11060.000000	64.246	-79.3480
11200.000000	64.624	-48.2000
11380.000000	65.133	-7.6709
11500.000000	65.499	19.1298
11720.000000	66.253	66.8118
11800.000000	66.565	84.1351
12060.000000	67.790	144.7686
12200.000000	68.595	-179.5880
12410.000000	69.935	-126.7632
12500.000000	70.514	-105.9576
12650.000000	71.400	-75.1405
12800.000000	72.072	-49.3223
13150.000000	72.163	-1.0164
13200.000000	71.977	5.5488
13400.000000	70.777	33.5331
13600.000000	69.029	67.3184
13800.000000	67.007	111.0112
14000.000000	64.962	166.9783
14300.000000	62.229	-99.1825
14500.000000	60.754	-37.1284
14750.000000	59.303	42.2566
15000.000000	58.169	114.2087
15250.000000	57.241	-178.0210
15500.000000	56.517	-100.3826
15750.000000	56.021	-13.3362
16000.000000	55.649	62.6367
16250.000000	55.190	126.2861
16500.000000	54.518	-171.5820
16750.000000	53.697	-104.4001
17000.000000	52.903	-21.9597
17250.000000	52.300	94.2505
17500.000000	51.964	-176.5459
17750.000000	51.895	-91.6553
18000.000000	52.064	-9.1208
18250.000000	52.450	56.2881
18500.000000	53.018	118.8000
18750.000000	53.693	-100.6807
19000.000000	54.386	33.9878
19250.000000	55.036	88.6389
19500.000000	55.611	23.7473
19750.000000	56.069	27.4316
20000.000000	56.324	44.8696
