* Measurement data measured by REW V5.30 beta 1
* Source: Microphone (2- USB Audio Device), MICROPHONE (Master Volume), R, volume: 0.250
* Format: 256k Log Swept Sine, 1 sweep at -12.0 dBFS with no timing reference
* Dated: 19-Nov-2023 22:26:54
* REW Settings:
*  C-weighting compensation: Off
*  Target level: 75.0 dB
* Note: 
* Measurement: Alpha and Delta AD15 L
* Smoothing: 1/12 octave
* Frequency Step: 1/48 octave
* Start Frequency: 20.300 Hz
*
* Freq(Hz)	SPL(dB)	Phase(degrees)
20.299999	80.017	-134.1698
20.600000	80.094	-134.6415
20.900000	80.186	-135.1930
21.200001	80.277	-135.7396
21.400000	80.333	-136.0913
21.799999	80.429	-136.7739
22.000000	80.471	-137.1133
22.400000	80.542	-137.8088
22.700001	80.589	-138.3577
23.000000	80.632	-138.9384
23.299999	80.674	-139.5545
23.600000	80.717	-140.2057
24.000000	80.772	-141.1209
24.299999	80.814	-141.8321
24.700001	80.871	-142.7961
25.000000	80.914	-143.5215
25.400000	80.976	-144.4849
25.799999	81.039	-145.4436
26.200001	81.104	-146.3984
26.500000	81.152	-147.1093
26.900000	81.213	-148.0415
27.200001	81.256	-148.7227
27.600000	81.311	-149.6035
28.000000	81.364	-150.4598
28.500000	81.427	-151.5219
29.000000	81.485	-152.6017
29.500000	81.537	-153.7020
30.000000	81.585	-154.8025
30.400000	81.623	-155.6698
30.700001	81.651	-156.3106
31.100000	81.688	-157.1537
31.500000	81.725	-157.9856
32.000000	81.768	-159.0090
32.500000	81.807	-160.0122
33.000000	81.842	-161.0016
33.500000	81.876	-161.9910
34.000000	81.907	-162.9878
34.500000	81.934	-163.9830
35.000000	81.957	-164.9598
35.500000	81.978	-165.9119
36.000000	82.000	-166.8492
36.500000	82.022	-167.7865
37.000000	82.042	-168.7262
37.500000	82.056	-169.6555
38.200001	82.068	-170.9141
38.700001	82.074	-171.7875
39.500000	82.085	-173.1862
40.000000	82.091	-174.0735
40.599998	82.095	-175.1360
41.200001	82.096	-176.1726
41.799999	82.096	-177.1778
42.500000	82.094	-178.3330
43.099998	82.088	-179.3279
43.700001	82.079	179.6737
44.400002	82.064	178.5304
45.000000	82.050	177.5907
45.500000	82.037	176.8376
46.200001	82.016	175.8089
46.799999	81.994	174.9294
47.500000	81.967	173.8955
48.200001	81.940	172.8636
48.700001	81.924	172.1351
49.400002	81.904	171.1296
50.000000	81.881	170.2808
50.799999	81.837	169.1719
51.500000	81.789	168.2268
52.200001	81.738	167.3007
53.000000	81.683	166.2567
53.799999	81.627	165.2274
54.500000	81.577	164.3400
55.200001	81.527	163.4616
56.000000	81.468	162.4669
57.000000	81.392	161.2476
58.000000	81.312	160.0651
59.000000	81.226	158.9211
60.000000	81.141	157.8109
60.799999	81.076	156.9337
61.500000	81.019	156.1663
62.200001	80.960	155.4030
63.000000	80.889	154.5471
64.000000	80.799	153.5144
65.000000	80.708	152.5308
66.000000	80.618	151.5938
67.000000	80.527	150.6794
68.000000	80.432	149.7599
69.000000	80.330	148.8125
70.000000	80.223	147.8380
71.000000	80.114	146.8681
72.000000	80.007	145.9331
73.000000	79.900	145.0485
74.000000	79.790	144.2183
75.000000	79.678	143.4342
76.199997	79.539	142.5251
77.500000	79.385	141.5247
78.800003	79.232	140.4973
80.000000	79.090	139.5955
81.199997	78.947	138.7866
82.500000	78.792	137.9850
83.800003	78.641	137.2125
85.000000	78.506	136.5202
86.199997	78.369	135.8625
87.500000	78.216	135.1995
88.500000	78.095	134.7171
90.000000	77.913	134.0074
91.199997	77.766	133.4585
92.500000	77.608	132.9160
93.800003	77.448	132.4232
95.000000	77.299	131.9846
96.199997	77.147	131.5533
97.500000	76.981	131.1139
98.800003	76.815	130.7218
100.000000	76.662	130.4024
101.500000	76.472	130.0349
103.000000	76.284	129.6656
104.400002	76.109	129.3161
106.000000	75.912	128.9542
107.500000	75.731	128.6685
109.000000	75.552	128.4263
110.599998	75.361	128.2083
112.000000	75.196	128.0401
113.800003	74.982	127.8506
115.000000	74.837	127.7444
117.199997	74.563	127.5750
118.000000	74.462	127.5164
120.599998	74.143	127.3694
122.000000	73.980	127.3610
124.099998	73.744	127.4530
125.000000	73.643	127.5107
126.500000	73.474	127.6129
128.000000	73.305	127.7204
131.500000	72.908	128.0058
132.000000	72.852	128.0535
134.000000	72.628	128.2712
136.000000	72.413	128.5291
138.000000	72.205	128.8206
140.000000	72.003	129.1647
143.000000	71.710	129.7944
145.000000	71.514	130.2557
147.500000	71.275	130.8468
150.000000	71.051	131.4658
152.500000	70.833	132.1303
155.000000	70.621	132.8397
157.500000	70.413	133.5967
160.000000	70.216	134.3790
162.500000	70.037	135.1870
165.000000	69.879	136.0602
167.500000	69.736	137.0174
170.000000	69.606	138.0739
172.500000	69.486	139.2083
175.000000	69.385	140.3586
177.500000	69.307	141.4771
180.000000	69.241	142.5466
182.500000	69.173	143.5831
185.000000	69.094	144.5849
187.500000	69.009	145.5630
190.000000	68.924	146.5625
192.500000	68.853	147.6383
195.000000	68.810	148.7985
197.500000	68.801	149.9467
200.000000	68.825	150.9797
203.000000	68.886	152.0236
206.000000	68.961	152.8282
209.000000	69.030	153.4259
212.000000	69.082	153.9271
214.000000	69.104	154.2491
218.000000	69.123	154.8670
220.000000	69.124	155.1535
224.000000	69.123	155.7310
227.000000	69.123	156.1984
230.000000	69.124	156.6772
233.000000	69.127	157.1396
236.000000	69.133	157.5842
240.000000	69.143	158.1593
243.000000	69.149	158.5673
247.000000	69.159	159.0545
250.000000	69.169	159.3747
254.000000	69.184	159.7591
258.000000	69.198	160.1144
262.000000	69.209	160.4729
265.000000	69.217	160.7514
269.000000	69.231	161.0983
272.000000	69.244	161.3366
276.000000	69.266	161.6522
280.000000	69.289	161.9692
285.000000	69.315	162.3303
290.000000	69.339	162.6507
295.000000	69.357	162.9177
300.000000	69.368	163.1161
304.000000	69.371	163.2503
307.000000	69.373	163.3420
311.000000	69.374	163.4576
315.000000	69.379	163.5809
320.000000	69.391	163.7413
325.000000	69.402	163.8761
330.000000	69.407	163.9780
335.000000	69.410	164.0510
340.000000	69.420	164.0912
345.000000	69.432	164.0876
350.000000	69.439	164.0598
355.000000	69.435	164.0339
360.000000	69.425	164.0286
365.000000	69.417	164.0746
370.000000	69.416	164.1886
375.000000	69.427	164.3579
382.000000	69.473	164.5758
387.000000	69.528	164.6086
395.000000	69.631	164.3897
400.000000	69.684	164.1274
406.000000	69.724	163.7207
412.000000	69.740	163.2764
418.000000	69.735	162.8749
425.000000	69.714	162.4938
431.000000	69.695	162.2544
437.000000	69.677	162.1091
444.000000	69.659	162.0058
450.000000	69.646	161.9195
455.000000	69.636	161.8412
462.000000	69.622	161.6942
468.000000	69.607	161.5208
475.000000	69.581	161.2810
482.000000	69.547	161.0255
487.000000	69.523	160.8518
494.000000	69.496	160.6368
500.000000	69.477	160.4720
508.000000	69.453	160.2430
515.000000	69.429	160.0279
522.000000	69.403	159.8344
530.000000	69.369	159.6701
538.000000	69.331	159.5495
545.000000	69.297	159.4535
552.000000	69.267	159.3567
560.000000	69.237	159.2451
570.000000	69.197	159.0863
580.000000	69.151	158.9020
590.000000	69.104	158.7057
600.000000	69.054	158.5394
608.000000	69.012	158.4803
615.000000	68.977	158.4869
622.000000	68.946	158.5170
630.000000	68.911	158.5493
640.000000	68.860	158.5959
650.000000	68.800	158.6581
660.000000	68.739	158.7299
670.000000	68.685	158.7822
680.000000	68.635	158.7873
690.000000	68.580	158.7999
700.000000	68.518	158.8813
710.000000	68.454	159.0189
720.000000	68.390	159.1956
730.000000	68.327	159.4001
740.000000	68.264	159.6138
750.000000	68.206	159.8871
762.000000	68.143	160.3847
775.000000	68.084	161.1301
788.000000	68.044	162.0191
800.000000	68.035	162.9250
812.000000	68.051	163.8524
825.000000	68.102	164.8918
838.000000	68.192	166.0164
850.000000	68.312	167.0946
862.000000	68.469	168.1333
875.000000	68.672	169.1445
885.000000	68.844	169.8056
900.000000	69.117	170.5843
912.000000	69.340	171.0465
925.000000	69.583	171.4098
938.000000	69.814	171.6539
950.000000	70.006	171.7955
962.000000	70.177	171.8642
975.000000	70.344	171.8918
988.000000	70.499	171.9476
1000.000000	70.632	172.0676
1015.000000	70.785	172.2957
1030.000000	70.919	172.5445
1044.000000	71.028	172.7416
1060.000000	71.138	172.9010
1075.000000	71.233	173.0115
1090.000000	71.319	173.1490
1106.000000	71.398	173.3583
1120.000000	71.458	173.5863
1138.000000	71.532	173.9038
1150.000000	71.581	174.0910
1172.000000	71.666	174.3396
1180.000000	71.695	174.4125
1206.000000	71.794	174.6805
1220.000000	71.856	174.8902
1241.000000	71.961	175.3217
1250.000000	72.011	175.5347
1265.000000	72.100	175.8909
1280.000000	72.190	176.2224
1315.000000	72.368	176.8614
1320.000000	72.385	176.9443
1340.000000	72.428	177.2946
1360.000000	72.426	177.7165
1380.000000	72.392	178.2177
1400.000000	72.347	178.7775
1430.000000	72.300	179.6581
1450.000000	72.298	-179.7321
1475.000000	72.330	-178.9335
1500.000000	72.394	-178.0835
1525.000000	72.479	-177.1593
1550.000000	72.574	-176.1802
1575.000000	72.672	-175.1573
1600.000000	72.772	-174.0143
1625.000000	72.886	-172.7449
1650.000000	73.006	-171.4542
1675.000000	73.120	-170.2753
1700.000000	73.233	-169.2388
1725.000000	73.357	-168.2338
1750.000000	73.496	-167.1724
1775.000000	73.643	-166.0781
1800.000000	73.793	-165.0112
1825.000000	73.943	-164.0003
1850.000000	74.098	-163.0381
1875.000000	74.256	-162.0780
1900.000000	74.420	-161.0554
1925.000000	74.593	-159.9442
1950.000000	74.773	-158.7786
1975.000000	74.953	-157.6111
2000.000000	75.135	-156.4669
2030.000000	75.359	-155.1544
2060.000000	75.592	-153.9928
2090.000000	75.826	-153.0742
2120.000000	76.061	-152.4216
2140.000000	76.221	-152.0900
2180.000000	76.547	-151.4557
2200.000000	76.715	-151.0717
2240.000000	77.067	-150.1422
2270.000000	77.338	-149.4055
2300.000000	77.610	-148.7471
2330.000000	77.884	-148.2256
2360.000000	78.160	-147.8749
2400.000000	78.523	-147.7535
2430.000000	78.787	-147.9361
2470.000000	79.127	-148.4518
2500.000000	79.372	-148.9614
2540.000000	79.686	-149.7436
2580.000000	79.979	-150.7091
2620.000000	80.240	-151.9988
2650.000000	80.412	-153.1925
2690.000000	80.611	-154.9638
2720.000000	80.738	-156.3354
2760.000000	80.875	-158.1753
2800.000000	80.976	-160.0746
2850.000000	81.046	-162.6402
2900.000000	81.055	-165.3085
2950.000000	81.018	-167.6727
3000.000000	80.947	-169.4794
3040.000000	80.868	-170.6004
3070.000000	80.797	-171.3185
3110.000000	80.690	-172.1503
3150.000000	80.572	-172.8358
3200.000000	80.423	-173.4249
3250.000000	80.281	-173.6857
3300.000000	80.142	-173.7210
3350.000000	80.003	-173.5480
3400.000000	79.876	-173.0464
3450.000000	79.765	-172.2319
3500.000000	79.664	-171.2777
3550.000000	79.570	-170.2833
3600.000000	79.494	-169.1877
3650.000000	79.444	-167.8974
3700.000000	79.425	-166.3752
3750.000000	79.444	-164.5829
3820.000000	79.536	-161.5214
3870.000000	79.642	-159.0464
3950.000000	79.860	-155.3694
4000.000000	80.017	-153.7104
4060.000000	80.218	-152.5074
4120.000000	80.433	-151.9211
4180.000000	80.663	-151.6645
4250.000000	80.939	-151.7893
4310.000000	81.162	-152.4651
4370.000000	81.359	-153.6989
4440.000000	81.551	-155.6482
4500.000000	81.682	-157.6343
4550.000000	81.760	-159.5248
4620.000000	81.791	-162.5071
4680.000000	81.737	-165.1598
4750.000000	81.597	-168.0833
4820.000000	81.388	-170.8692
4870.000000	81.189	-172.9109
4940.000000	80.818	-175.8831
5000.000000	80.399	-178.4276
5080.000000	79.696	178.5024
5150.000000	78.978	176.5609
5220.000000	78.205	175.6651
5300.000000	77.301	176.0002
5380.000000	76.410	177.5967
5450.000000	75.663	179.7067
5520.000000	74.960	-177.8721
5600.000000	74.215	-174.9958
5700.000000	73.384	-171.3339
5800.000000	72.659	-167.5532
5900.000000	72.043	-163.5539
6000.000000	71.523	-159.4443
6080.000000	71.171	-156.1505
6150.000000	70.902	-153.2914
6220.000000	70.667	-150.4855
6300.000000	70.438	-147.3770
6400.000000	70.212	-143.6496
6500.000000	70.060	-139.9733
6600.000000	69.992	-136.3828
6700.000000	70.004	-133.4162
6800.000000	70.096	-131.5927
6900.000000	70.275	-130.8860
7000.000000	70.556	-130.8180
7100.000000	70.952	-131.0077
7200.000000	71.476	-131.4006
7300.000000	72.142	-132.0253
7400.000000	72.956	-133.0675
7500.000000	73.904	-134.8730
7620.000000	75.160	-138.5152
7750.000000	76.493	-144.9061
7880.000000	77.532	-154.2352
8000.000000	78.017	-165.0044
8120.000000	77.918	-176.7157
8250.000000	77.152	171.1805
8380.000000	75.857	161.1544
8500.000000	74.394	154.1852
8620.000000	72.857	149.2909
8750.000000	71.266	146.0531
8850.000000	70.154	144.7683
9000.000000	68.698	144.4335
9120.000000	67.717	145.4754
9250.000000	66.821	147.8773
9380.000000	66.078	151.5443
9500.000000	65.523	156.0783
9620.000000	65.092	161.5376
9750.000000	64.754	167.8768
9880.000000	64.533	173.8271
10000.000000	64.424	178.4350
10150.000000	64.402	-176.9731
10300.000000	64.497	-173.0688
10440.000000	64.670	-169.7434
10600.000000	64.935	-166.4893
10750.000000	65.210	-164.3444
10900.000000	65.480	-163.2201
11060.000000	65.742	-162.7468
11200.000000	65.944	-162.3420
11380.000000	66.185	-161.0141
11500.000000	66.352	-159.5450
11720.000000	66.727	-156.5480
11800.000000	66.906	-155.5632
12060.000000	67.734	-153.2141
12200.000000	68.351	-152.8176
12410.000000	69.426	-154.6613
12500.000000	69.894	-156.7327
12650.000000	70.589	-162.0974
12800.000000	71.072	-169.7400
13150.000000	70.777	166.6978
13200.000000	70.552	163.2155
13400.000000	69.251	150.5720
13600.000000	67.502	141.0125
13800.000000	65.584	134.5376
14000.000000	63.743	130.7166
14300.000000	61.477	129.0965
14500.000000	60.365	129.2973
14750.000000	59.365	129.1279
15000.000000	58.722	128.8049
15250.000000	58.400	129.3851
15500.000000	58.421	130.1815
15750.000000	58.848	128.5976
16000.000000	59.402	121.7184
16250.000000	59.392	110.4911
16500.000000	58.533	99.9279
16750.000000	57.105	93.1865
17000.000000	55.424	90.2875
17250.000000	53.697	90.2407
17500.000000	52.066	92.0251
17750.000000	50.636	94.9510
18000.000000	49.468	98.7787
18250.000000	48.582	103.2698
18500.000000	47.964	108.5154
18750.000000	47.627	114.9443
19000.000000	47.616	122.5675
19250.000000	47.927	130.9128
19500.000000	48.443	138.6810
19750.000000	48.968	144.3451
20000.000000	49.289	147.0250
