* Measurement data measured by REW V5.30 beta 1
* Source: Microphone (2- USB Audio Device), MICROPHONE (Master Volume), R, volume: 0.250
* Format: 256k Log Swept Sine, 1 sweep at -12.0 dBFS with no timing reference
* Dated: 19-Nov-2023 22:27:57
* REW Settings:
*  C-weighting compensation: Off
*  Target level: 75.0 dB
* Note: 
* Measurement: Alpha and Delta AD15 R
* Smoothing: 1/12 octave
* Frequency Step: 1/48 octave
* Start Frequency: 20.300 Hz
*
* Freq(Hz)	SPL(dB)	Phase(degrees)
20.299999	80.444	-123.4584
20.600000	80.520	-123.7657
20.900000	80.610	-124.1225
21.200001	80.698	-124.4813
21.400000	80.751	-124.7198
21.799999	80.839	-125.2096
22.000000	80.875	-125.4677
22.400000	80.932	-126.0222
22.700001	80.967	-126.4778
23.000000	81.001	-126.9714
23.299999	81.037	-127.5039
23.600000	81.076	-128.0729
24.000000	81.135	-128.8765
24.299999	81.183	-129.4990
24.700001	81.251	-130.3310
25.000000	81.304	-130.9413
25.400000	81.373	-131.7208
25.799999	81.441	-132.4539
26.200001	81.504	-133.1430
26.500000	81.548	-133.6372
26.900000	81.604	-134.2777
27.200001	81.645	-134.7531
27.600000	81.698	-135.3922
28.000000	81.751	-136.0458
28.500000	81.816	-136.8861
29.000000	81.878	-137.7403
29.500000	81.938	-138.5879
30.000000	81.994	-139.4142
30.400000	82.036	-140.0581
30.700001	82.066	-140.5330
31.100000	82.103	-141.1582
31.500000	82.138	-141.7758
32.000000	82.178	-142.5369
32.500000	82.216	-143.2852
33.000000	82.254	-144.0227
33.500000	82.291	-144.7520
34.000000	82.325	-145.4709
34.500000	82.355	-146.1736
35.000000	82.382	-146.8596
35.500000	82.406	-147.5385
36.000000	82.428	-148.2238
36.500000	82.448	-148.9200
37.000000	82.464	-149.6174
37.500000	82.476	-150.3015
38.200001	82.490	-151.2265
38.700001	82.498	-151.8709
39.500000	82.506	-152.8829
40.000000	82.509	-153.4954
40.599998	82.510	-154.2018
41.200001	82.512	-154.8844
41.799999	82.515	-155.5620
42.500000	82.515	-156.3655
43.099998	82.512	-157.0645
43.700001	82.504	-157.7579
44.400002	82.492	-158.5352
45.000000	82.480	-159.1628
45.500000	82.467	-159.6613
46.200001	82.446	-160.3378
46.799999	82.426	-160.9087
47.500000	82.402	-161.5644
48.200001	82.382	-162.1996
48.700001	82.370	-162.6393
49.400002	82.355	-163.2444
50.000000	82.336	-163.7642
50.799999	82.293	-164.4657
51.500000	82.246	-165.0792
52.200001	82.199	-165.6796
53.000000	82.150	-166.3383
53.799999	82.101	-166.9622
54.500000	82.055	-167.4852
55.200001	82.004	-168.0011
56.000000	81.944	-168.5948
57.000000	81.868	-169.3256
58.000000	81.793	-170.0027
59.000000	81.716	-170.6229
60.000000	81.633	-171.2286
60.799999	81.562	-171.7240
61.500000	81.498	-172.1586
62.200001	81.435	-172.5821
63.000000	81.363	-173.0484
64.000000	81.276	-173.6124
65.000000	81.191	-174.1618
66.000000	81.105	-174.6914
67.000000	81.013	-175.1792
68.000000	80.915	-175.6026
69.000000	80.814	-175.9686
70.000000	80.712	-176.3143
71.000000	80.611	-176.6713
72.000000	80.510	-177.0432
73.000000	80.410	-177.4194
74.000000	80.309	-177.7931
75.000000	80.206	-178.1589
76.199997	80.079	-178.5719
77.500000	79.935	-178.9570
78.800003	79.785	-179.2716
80.000000	79.646	-179.5201
81.199997	79.510	-179.7504
82.500000	79.364	-179.9884
83.800003	79.216	179.8034
85.000000	79.075	179.6565
86.199997	78.929	179.5639
87.500000	78.772	179.5064
88.500000	78.652	179.4847
90.000000	78.474	179.4962
91.199997	78.334	179.5514
92.500000	78.183	179.6599
93.800003	78.032	179.8099
95.000000	77.890	179.9817
96.199997	77.743	-179.8182
97.500000	77.578	-179.5809
98.800003	77.412	-179.3333
100.000000	77.260	-179.1008
101.500000	77.077	-178.8044
103.000000	76.902	-178.4737
104.400002	76.737	-178.0947
106.000000	76.541	-177.5894
107.500000	76.354	-177.0960
109.000000	76.172	-176.5928
110.599998	75.983	-176.0304
112.000000	75.820	-175.5231
113.800003	75.610	-174.8439
115.000000	75.469	-174.3519
117.199997	75.205	-173.3437
118.000000	75.109	-172.9448
120.599998	74.800	-171.6001
122.000000	74.636	-170.8745
124.099998	74.394	-169.7653
125.000000	74.291	-169.2756
126.500000	74.121	-168.4384
128.000000	73.950	-167.5780
131.500000	73.560	-165.4794
132.000000	73.506	-165.1629
134.000000	73.295	-163.8458
136.000000	73.092	-162.4628
138.000000	72.895	-161.0456
140.000000	72.703	-159.6048
143.000000	72.420	-157.3750
145.000000	72.238	-155.8098
147.500000	72.018	-153.7975
150.000000	71.807	-151.7538
152.500000	71.603	-149.6772
155.000000	71.409	-147.5561
157.500000	71.222	-145.3819
160.000000	71.046	-143.1877
162.500000	70.883	-141.0079
165.000000	70.732	-138.8133
167.500000	70.593	-136.5957
170.000000	70.467	-134.3726
172.500000	70.351	-132.1405
175.000000	70.239	-129.8785
177.500000	70.130	-127.5866
180.000000	70.026	-125.2971
182.500000	69.927	-123.0145
185.000000	69.824	-120.7320
187.500000	69.718	-118.4531
190.000000	69.617	-116.1747
192.500000	69.531	-113.8945
195.000000	69.462	-111.6178
197.500000	69.410	-109.3485
200.000000	69.377	-107.0887
203.000000	69.360	-104.4046
206.000000	69.365	-101.7618
209.000000	69.380	-99.1427
212.000000	69.394	-96.5420
214.000000	69.401	-94.8345
218.000000	69.415	-91.5268
220.000000	69.421	-89.9210
224.000000	69.425	-86.7555
227.000000	69.425	-84.4088
230.000000	69.430	-82.0739
233.000000	69.442	-79.7474
236.000000	69.457	-77.4662
240.000000	69.480	-74.5173
243.000000	69.497	-72.3560
247.000000	69.517	-69.5111
250.000000	69.532	-67.3804
254.000000	69.554	-64.5306
258.000000	69.579	-61.6810
262.000000	69.603	-58.8350
265.000000	69.621	-56.7073
269.000000	69.648	-53.9001
272.000000	69.668	-51.8240
276.000000	69.696	-49.0823
280.000000	69.728	-46.3619
285.000000	69.774	-42.9986
290.000000	69.823	-39.7230
295.000000	69.864	-36.5368
300.000000	69.904	-33.4058
304.000000	69.939	-30.9681
307.000000	69.964	-29.1998
311.000000	69.994	-26.9173
315.000000	70.017	-24.7068
320.000000	70.036	-22.0444
325.000000	70.049	-19.5013
330.000000	70.061	-17.0622
335.000000	70.078	-14.7120
340.000000	70.097	-12.4285
345.000000	70.111	-10.1529
350.000000	70.113	-7.8723
355.000000	70.106	-5.6099
360.000000	70.102	-3.3388
365.000000	70.109	-1.0363
370.000000	70.123	1.2648
375.000000	70.132	3.5511
382.000000	70.130	6.7627
387.000000	70.123	9.0492
395.000000	70.113	12.6771
400.000000	70.111	14.9339
406.000000	70.110	17.6247
412.000000	70.109	20.2856
418.000000	70.103	22.9235
425.000000	70.092	25.9774
431.000000	70.079	28.5350
437.000000	70.061	31.0162
444.000000	70.039	33.8522
450.000000	70.024	36.2788
455.000000	70.017	38.2984
462.000000	70.009	41.0859
468.000000	70.002	43.4192
475.000000	69.989	46.0983
482.000000	69.963	48.7718
487.000000	69.937	50.6901
494.000000	69.897	53.3999
500.000000	69.867	55.7664
508.000000	69.839	59.0066
515.000000	69.820	61.9260
522.000000	69.805	64.9096
530.000000	69.788	68.3336
538.000000	69.763	71.7168
545.000000	69.733	74.6550
552.000000	69.700	77.5924
560.000000	69.662	80.9510
570.000000	69.616	85.1500
580.000000	69.575	89.3504
590.000000	69.538	93.5240
600.000000	69.491	97.6720
608.000000	69.447	101.0135
615.000000	69.405	103.9650
622.000000	69.364	106.9162
630.000000	69.320	110.2645
640.000000	69.271	114.3989
650.000000	69.227	118.4392
660.000000	69.177	122.3833
670.000000	69.117	126.2517
680.000000	69.046	130.0601
690.000000	68.974	133.8789
700.000000	68.908	137.7569
710.000000	68.848	141.6845
720.000000	68.790	145.6387
730.000000	68.733	149.6086
740.000000	68.681	153.6081
750.000000	68.633	157.6633
762.000000	68.578	162.6453
775.000000	68.526	168.2011
788.000000	68.498	173.8864
800.000000	68.498	179.2432
812.000000	68.525	-175.3653
825.000000	68.595	-169.5315
838.000000	68.709	-163.7078
850.000000	68.853	-158.4005
862.000000	69.028	-153.2275
875.000000	69.247	-147.8393
885.000000	69.430	-143.8870
900.000000	69.711	-138.2826
912.000000	69.935	-134.0208
925.000000	70.175	-129.5300
938.000000	70.404	-125.1246
950.000000	70.600	-121.1431
962.000000	70.777	-117.2723
975.000000	70.948	-113.2314
988.000000	71.099	-109.3398
1000.000000	71.225	-105.8280
1015.000000	71.369	-101.4800
1030.000000	71.498	-97.1755
1044.000000	71.608	-93.2218
1060.000000	71.720	-88.8277
1075.000000	71.809	-84.8736
1090.000000	71.884	-81.1004
1106.000000	71.956	-77.2640
1120.000000	72.018	-74.0134
1138.000000	72.093	-69.8494
1150.000000	72.139	-67.0186
1172.000000	72.220	-61.6885
1180.000000	72.251	-59.7155
1206.000000	72.355	-53.2007
1220.000000	72.414	-49.6465
1241.000000	72.514	-44.3091
1250.000000	72.561	-42.0310
1265.000000	72.642	-38.2626
1280.000000	72.726	-34.5481
1315.000000	72.899	-26.1706
1320.000000	72.917	-24.9985
1340.000000	72.960	-20.3245
1360.000000	72.956	-15.6434
1380.000000	72.917	-10.9640
1400.000000	72.863	-6.2943
1430.000000	72.809	0.7074
1450.000000	72.811	5.3353
1475.000000	72.850	10.9739
1500.000000	72.915	16.3265
1525.000000	72.996	21.3386
1550.000000	73.088	26.0624
1575.000000	73.185	30.6235
1600.000000	73.284	35.1165
1625.000000	73.384	39.5604
1650.000000	73.487	43.9480
1675.000000	73.595	48.3282
1700.000000	73.712	52.7101
1725.000000	73.836	57.0451
1750.000000	73.964	61.2917
1775.000000	74.093	65.4062
1800.000000	74.222	69.3642
1825.000000	74.354	73.1937
1850.000000	74.492	76.9604
1875.000000	74.640	80.7006
1900.000000	74.796	84.4170
1925.000000	74.958	88.0941
1950.000000	75.125	91.7070
1975.000000	75.293	95.2193
2000.000000	75.462	98.6031
2030.000000	75.674	102.5043
2060.000000	75.902	106.2815
2090.000000	76.141	109.9686
2120.000000	76.380	113.6008
2140.000000	76.539	116.0190
2180.000000	76.865	120.8204
2200.000000	77.032	123.1537
2240.000000	77.371	127.5408
2270.000000	77.632	130.4948
2300.000000	77.895	133.1212
2330.000000	78.161	135.4711
2360.000000	78.424	137.6168
2400.000000	78.771	140.1959
2430.000000	79.027	141.8844
2470.000000	79.359	143.7729
2500.000000	79.598	144.9695
2540.000000	79.901	146.4415
2580.000000	80.185	147.9240
2620.000000	80.443	149.4686
2650.000000	80.618	150.6321
2690.000000	80.821	152.1023
2720.000000	80.949	153.0971
2760.000000	81.089	154.2408
2800.000000	81.195	155.1099
2850.000000	81.271	155.7115
2900.000000	81.285	155.9003
2950.000000	81.249	156.0204
3000.000000	81.182	156.5358
3040.000000	81.113	157.4236
3070.000000	81.050	158.3271
3110.000000	80.949	159.7716
3150.000000	80.836	161.4930
3200.000000	80.690	164.0884
3250.000000	80.547	167.1595
3300.000000	80.405	170.7057
3350.000000	80.266	174.7308
3400.000000	80.133	179.1530
3450.000000	80.008	-176.1750
3500.000000	79.891	-171.3768
3550.000000	79.787	-166.4678
3600.000000	79.707	-161.4555
3650.000000	79.658	-156.5350
3700.000000	79.634	-151.9801
3750.000000	79.638	-147.8981
3820.000000	79.702	-142.8383
3870.000000	79.787	-139.6050
3950.000000	79.971	-135.0468
4000.000000	80.108	-132.4548
4060.000000	80.296	-129.4125
4120.000000	80.508	-126.5222
4180.000000	80.734	-124.1645
4250.000000	80.997	-122.5814
4310.000000	81.211	-122.2819
4370.000000	81.406	-122.8528
4440.000000	81.596	-124.4922
4500.000000	81.725	-126.5551
4550.000000	81.801	-128.6218
4620.000000	81.838	-131.8721
4680.000000	81.788	-134.7761
4750.000000	81.638	-138.0675
4820.000000	81.404	-141.2557
4870.000000	81.186	-143.5789
4940.000000	80.797	-146.9733
5000.000000	80.374	-149.9324
5080.000000	79.673	-153.7117
5150.000000	78.951	-156.7125
5220.000000	78.158	-159.3435
5300.000000	77.217	-161.6988
5380.000000	76.286	-163.2343
5450.000000	75.497	-164.0217
5520.000000	74.745	-164.4111
5600.000000	73.945	-164.4437
5700.000000	73.046	-163.9168
5800.000000	72.255	-162.9648
5900.000000	71.564	-161.8051
6000.000000	70.962	-160.3703
6080.000000	70.540	-158.9459
6150.000000	70.207	-157.6323
6220.000000	69.904	-156.4660
6300.000000	69.590	-155.5240
6400.000000	69.248	-155.0451
6500.000000	68.967	-155.1884
6600.000000	68.751	-155.5936
6700.000000	68.607	-155.9235
6800.000000	68.540	-155.9862
6900.000000	68.548	-155.8087
7000.000000	68.630	-155.5544
7100.000000	68.792	-155.3496
7200.000000	69.046	-155.4003
7300.000000	69.397	-156.0023
7400.000000	69.855	-157.2548
7500.000000	70.440	-159.0174
7620.000000	71.307	-161.6688
7750.000000	72.421	-165.3295
7880.000000	73.669	-170.1833
8000.000000	74.902	-176.2776
8120.000000	76.151	175.5385
8250.000000	77.374	163.6762
8380.000000	78.237	148.4257
8500.000000	78.517	132.0485
8620.000000	78.208	114.9813
8750.000000	77.268	97.8898
8850.000000	76.235	86.8806
9000.000000	74.444	74.7090
9120.000000	72.987	68.3310
9250.000000	71.521	63.7111
9380.000000	70.240	60.3607
9500.000000	69.241	57.5831
9620.000000	68.420	54.7137
9750.000000	67.721	51.2645
9880.000000	67.194	47.1693
10000.000000	66.841	42.6414
10150.000000	66.559	35.9379
10300.000000	66.420	28.1875
10440.000000	66.390	20.2805
10600.000000	66.439	10.5774
10750.000000	66.528	0.7673
10900.000000	66.634	-9.5598
11060.000000	66.735	-21.1693
11200.000000	66.793	-32.0706
11380.000000	66.833	-46.9027
11500.000000	66.862	-56.9608
11720.000000	66.980	-75.7611
11800.000000	67.061	-82.9651
12060.000000	67.552	-108.2890
12200.000000	67.986	-122.8230
12410.000000	68.834	-145.4972
12500.000000	69.236	-155.7173
12650.000000	69.875	-173.9507
12800.000000	70.372	165.7518
13150.000000	70.303	110.9101
13200.000000	70.117	102.8924
13400.000000	68.943	72.5753
13600.000000	67.233	46.0921
13800.000000	65.240	22.7292
14000.000000	63.215	1.2170
14300.000000	60.513	-30.1793
14500.000000	59.066	-51.1711
14750.000000	57.661	-77.7294
15000.000000	56.622	-106.2823
15250.000000	55.912	-136.3956
15500.000000	55.618	-165.5276
15750.000000	55.942	165.9156
16000.000000	56.739	134.9898
16250.000000	57.367	100.9012
16500.000000	57.596	65.8105
16750.000000	57.588	28.1754
17000.000000	57.296	-14.4732
17250.000000	56.582	-59.0048
17500.000000	55.450	-100.4774
17750.000000	54.040	-139.4662
18000.000000	52.554	-178.9110
18250.000000	51.190	140.6816
18500.000000	50.110	100.9319
18750.000000	49.421	62.6121
19000.000000	49.182	24.7882
19250.000000	49.380	-14.9122
19500.000000	49.902	-54.4146
19750.000000	50.500	-84.9139
20000.000000	50.869	-100.4766
