* Measurement data measured by REW V5.20.13
* Source: Microphone (USB Audio Device), MICROPHONE (Master Volume), R, volume: 0.250
* Format: 256k Log Swept Sine, 1 sweep at -12.0 dBFS with no timing reference
* Dated: 09-Oct-2023 10:30:54
* REW Settings:
*  C-weighting compensation: Off
*  Target level: 75.0 dB
* Note: 
* Measurement: BASN MMCX L
* Smoothing: 1/12 octave
* Frequency Step: 1/48 octave
* Start Frequency: 20.300 Hz
*
* Freq(Hz)	SPL(dB)	Phase(degrees)
20.299999	73.131	-70.4122
20.600000	73.147	-71.0973
20.900000	73.190	-72.4836
21.200001	73.251	-73.8151
21.400000	73.308	-74.5949
21.799999	73.466	-75.9800
22.000000	73.566	-76.6505
22.400000	73.794	-78.1052
22.700001	73.968	-79.3354
23.000000	74.127	-80.6534
23.299999	74.263	-81.9895
23.600000	74.379	-83.2896
24.000000	74.507	-84.9196
24.299999	74.592	-86.0701
24.700001	74.697	-87.5485
25.000000	74.771	-88.6363
25.400000	74.866	-90.0510
25.799999	74.960	-91.3814
26.200001	75.068	-92.6029
26.500000	75.164	-93.4719
26.900000	75.313	-94.6339
27.200001	75.431	-95.5526
27.600000	75.584	-96.8536
28.000000	75.716	-98.1741
28.500000	75.845	-99.6862
29.000000	75.959	-100.9662
29.500000	76.080	-102.1664
30.000000	76.198	-103.5348
30.400000	76.271	-104.7978
30.700001	76.307	-105.7900
31.100000	76.334	-107.0558
31.500000	76.354	-108.1735
32.000000	76.404	-109.3686
32.500000	76.494	-110.4964
33.000000	76.603	-111.7127
33.500000	76.704	-113.0186
34.000000	76.783	-114.3128
34.500000	76.845	-115.5272
35.000000	76.900	-116.6832
35.500000	76.953	-117.8366
36.000000	77.000	-119.0034
36.500000	77.042	-120.1504
37.000000	77.081	-121.2341
37.500000	77.121	-122.2397
38.200001	77.184	-123.5520
38.700001	77.233	-124.4596
39.500000	77.309	-125.9182
40.000000	77.351	-126.8541
40.599998	77.395	-128.0180
41.200001	77.427	-129.2204
41.799999	77.450	-130.4212
42.500000	77.473	-131.7589
43.099998	77.498	-132.8358
43.700001	77.532	-133.8649
44.400002	77.576	-135.0169
45.000000	77.609	-135.9565
45.500000	77.632	-136.7060
46.200001	77.658	-137.7289
46.799999	77.676	-138.6170
47.500000	77.694	-139.6892
48.200001	77.708	-140.7642
48.700001	77.716	-141.4996
49.400002	77.731	-142.4713
50.000000	77.745	-143.2784
50.799999	77.765	-144.3573
51.500000	77.783	-145.2968
52.200001	77.803	-146.2156
53.000000	77.821	-147.2486
53.799999	77.823	-148.2902
54.500000	77.807	-149.2193
55.200001	77.784	-150.1509
56.000000	77.763	-151.1915
57.000000	77.766	-152.4446
58.000000	77.788	-153.6424
59.000000	77.795	-154.7560
60.000000	77.769	-155.7636
60.799999	77.733	-156.5214
61.500000	77.705	-157.1795
62.200001	77.688	-157.8367
63.000000	77.685	-158.5745
64.000000	77.689	-159.4693
65.000000	77.675	-160.3531
66.000000	77.637	-161.2662
67.000000	77.591	-162.1801
68.000000	77.545	-163.0139
69.000000	77.497	-163.7609
70.000000	77.459	-164.5142
71.000000	77.443	-165.3470
72.000000	77.443	-166.1859
73.000000	77.445	-166.9852
74.000000	77.435	-167.8170
75.000000	77.411	-168.6925
76.199997	77.370	-169.6733
77.500000	77.310	-170.5481
78.800003	77.244	-171.2971
80.000000	77.191	-171.9490
81.199997	77.151	-172.5520
82.500000	77.111	-173.1031
83.800003	77.068	-173.5776
85.000000	77.035	-174.0449
86.199997	77.020	-174.6043
87.500000	77.012	-175.2981
88.500000	77.000	-175.8582
90.000000	76.966	-176.7352
91.199997	76.930	-177.4642
92.500000	76.885	-178.2484
93.800003	76.840	-179.0277
95.000000	76.798	-179.7340
96.199997	76.756	179.6152
97.500000	76.705	178.9863
98.800003	76.653	178.4128
100.000000	76.606	177.9175
101.500000	76.548	177.3292
103.000000	76.493	176.7650
104.400002	76.445	176.2581
106.000000	76.388	175.6903
107.500000	76.327	175.1653
109.000000	76.260	174.6616
110.599998	76.192	174.1549
112.000000	76.136	173.7213
113.800003	76.069	173.1600
115.000000	76.026	172.7922
117.199997	75.943	172.1515
118.000000	75.911	171.9329
120.599998	75.807	171.2537
122.000000	75.754	170.8912
124.099998	75.678	170.3654
125.000000	75.644	170.1473
126.500000	75.588	169.7868
128.000000	75.531	169.4294
131.500000	75.400	168.5590
132.000000	75.380	168.4272
134.000000	75.295	167.9265
136.000000	75.209	167.5198
138.000000	75.134	167.1928
140.000000	75.064	166.8978
143.000000	74.955	166.5200
145.000000	74.882	166.3110
147.500000	74.787	166.0372
150.000000	74.688	165.7225
152.500000	74.604	165.3727
155.000000	74.530	165.0177
157.500000	74.448	164.7001
160.000000	74.363	164.4189
162.500000	74.281	164.1710
165.000000	74.205	163.9697
167.500000	74.135	163.8025
170.000000	74.063	163.6710
172.500000	73.986	163.5830
175.000000	73.904	163.5144
177.500000	73.824	163.4517
180.000000	73.751	163.3719
182.500000	73.682	163.2305
185.000000	73.603	163.0358
187.500000	73.509	162.8452
190.000000	73.405	162.6761
192.500000	73.300	162.5230
195.000000	73.205	162.3972
197.500000	73.130	162.3021
200.000000	73.069	162.2262
203.000000	73.004	162.1451
206.000000	72.942	162.0914
209.000000	72.883	162.1245
212.000000	72.823	162.2473
214.000000	72.778	162.3307
218.000000	72.660	162.3622
220.000000	72.587	162.3021
224.000000	72.432	162.1897
227.000000	72.323	162.2216
230.000000	72.229	162.4001
233.000000	72.146	162.7265
236.000000	72.069	163.2036
240.000000	71.985	163.9399
243.000000	71.945	164.4060
247.000000	71.892	165.0407
250.000000	71.827	165.6742
254.000000	71.727	166.7278
258.000000	71.659	167.8560
262.000000	71.676	168.8455
265.000000	71.749	169.3496
269.000000	71.876	169.5488
272.000000	71.957	169.3881
276.000000	72.033	168.9111
280.000000	72.079	168.3150
285.000000	72.097	167.6412
290.000000	72.058	167.0962
295.000000	71.976	166.6791
300.000000	71.882	166.3864
304.000000	71.807	166.2795
307.000000	71.751	166.2872
311.000000	71.677	166.3696
315.000000	71.606	166.4649
320.000000	71.520	166.5657
325.000000	71.435	166.6655
330.000000	71.357	166.7966
335.000000	71.287	166.9617
340.000000	71.223	167.1312
345.000000	71.165	167.2757
350.000000	71.109	167.4363
355.000000	71.053	167.6523
360.000000	70.994	167.9214
365.000000	70.937	168.2281
370.000000	70.886	168.5380
375.000000	70.844	168.8257
382.000000	70.781	169.1943
387.000000	70.731	169.4603
395.000000	70.656	169.9348
400.000000	70.611	170.2341
406.000000	70.562	170.5713
412.000000	70.521	170.9202
418.000000	70.488	171.3130
425.000000	70.456	171.7878
431.000000	70.427	172.1730
437.000000	70.396	172.5296
444.000000	70.361	172.9002
450.000000	70.333	173.1971
455.000000	70.310	173.4475
462.000000	70.279	173.8199
468.000000	70.255	174.1483
475.000000	70.228	174.5110
482.000000	70.197	174.8591
487.000000	70.171	175.1079
494.000000	70.131	175.4549
500.000000	70.097	175.7539
508.000000	70.060	176.1804
515.000000	70.036	176.6034
522.000000	70.017	177.0565
530.000000	69.998	177.5726
538.000000	69.981	178.0814
545.000000	69.966	178.5391
552.000000	69.945	179.0096
560.000000	69.915	179.5486
570.000000	69.887	-179.7892
580.000000	69.875	-179.1332
590.000000	69.870	-178.4760
600.000000	69.860	-177.8292
608.000000	69.849	-177.3177
615.000000	69.841	-176.8625
622.000000	69.836	-176.4004
630.000000	69.830	-175.8734
640.000000	69.824	-175.2007
650.000000	69.828	-174.4951
660.000000	69.845	-173.7789
670.000000	69.865	-173.0626
680.000000	69.883	-172.3813
690.000000	69.902	-171.7608
700.000000	69.925	-171.1577
710.000000	69.953	-170.5126
720.000000	69.984	-169.8220
730.000000	70.017	-169.1499
740.000000	70.052	-168.5253
750.000000	70.088	-167.9042
762.000000	70.133	-167.1192
775.000000	70.188	-166.2492
788.000000	70.250	-165.4043
800.000000	70.317	-164.6307
812.000000	70.391	-163.8709
825.000000	70.477	-163.1057
838.000000	70.567	-162.3788
850.000000	70.655	-161.7006
862.000000	70.746	-161.0089
875.000000	70.847	-160.2748
885.000000	70.928	-159.7427
900.000000	71.057	-158.9902
912.000000	71.168	-158.4199
925.000000	71.297	-157.8513
938.000000	71.433	-157.3417
950.000000	71.562	-156.9286
962.000000	71.692	-156.5790
975.000000	71.833	-156.2749
988.000000	71.976	-156.0382
1000.000000	72.109	-155.8712
1015.000000	72.274	-155.7366
1030.000000	72.433	-155.6917
1044.000000	72.575	-155.7209
1060.000000	72.726	-155.8043
1075.000000	72.859	-155.9115
1090.000000	72.984	-156.0423
1106.000000	73.112	-156.1929
1120.000000	73.222	-156.3220
1138.000000	73.364	-156.5026
1150.000000	73.459	-156.6436
1172.000000	73.631	-156.9541
1180.000000	73.692	-157.0889
1206.000000	73.891	-157.5571
1220.000000	74.001	-157.7989
1241.000000	74.175	-158.1793
1250.000000	74.254	-158.3517
1265.000000	74.391	-158.6413
1280.000000	74.530	-158.9256
1315.000000	74.834	-159.5632
1320.000000	74.871	-159.6552
1340.000000	74.991	-160.0375
1360.000000	75.062	-160.4408
1380.000000	75.093	-160.8445
1400.000000	75.110	-161.2421
1430.000000	75.158	-161.8760
1450.000000	75.217	-162.3480
1475.000000	75.316	-162.9850
1500.000000	75.437	-163.6547
1525.000000	75.571	-164.3461
1550.000000	75.711	-165.0676
1575.000000	75.848	-165.8268
1600.000000	75.977	-166.5915
1625.000000	76.097	-167.3529
1650.000000	76.208	-168.1480
1675.000000	76.311	-168.9925
1700.000000	76.410	-169.8792
1725.000000	76.501	-170.7917
1750.000000	76.582	-171.7267
1775.000000	76.654	-172.6898
1800.000000	76.718	-173.6740
1825.000000	76.775	-174.6665
1850.000000	76.821	-175.6647
1875.000000	76.856	-176.6673
1900.000000	76.880	-177.6612
1925.000000	76.896	-178.6396
1950.000000	76.906	-179.6073
1975.000000	76.911	179.4400
2000.000000	76.910	178.5121
2030.000000	76.905	177.4269
2060.000000	76.895	176.3553
2090.000000	76.875	175.2864
2120.000000	76.842	174.2200
2140.000000	76.815	173.5200
2180.000000	76.754	172.1755
2200.000000	76.719	171.5371
2240.000000	76.643	170.3350
2270.000000	76.578	169.4970
2300.000000	76.509	168.7046
2330.000000	76.437	167.9497
2360.000000	76.364	167.2360
2400.000000	76.262	166.3498
2430.000000	76.183	165.7212
2470.000000	76.072	164.9235
2500.000000	75.987	164.3623
2540.000000	75.871	163.6681
2580.000000	75.754	163.0401
2620.000000	75.636	162.4800
2650.000000	75.547	162.0972
2690.000000	75.426	161.6308
2720.000000	75.333	161.3140
2760.000000	75.210	160.9360
2800.000000	75.092	160.6071
2850.000000	74.951	160.2568
2900.000000	74.818	159.9926
2950.000000	74.691	159.8024
3000.000000	74.569	159.6495
3040.000000	74.469	159.5341
3070.000000	74.393	159.4437
3110.000000	74.294	159.3251
3150.000000	74.197	159.2277
3200.000000	74.079	159.1564
3250.000000	73.964	159.1212
3300.000000	73.852	159.0926
3350.000000	73.738	159.0849
3400.000000	73.623	159.1174
3450.000000	73.506	159.1733
3500.000000	73.387	159.2407
3550.000000	73.265	159.3323
3600.000000	73.145	159.4651
3650.000000	73.032	159.6461
3700.000000	72.927	159.8586
3750.000000	72.830	160.0882
3820.000000	72.713	160.4586
3870.000000	72.639	160.7628
3950.000000	72.523	161.3397
4000.000000	72.450	161.7737
4060.000000	72.362	162.3282
4120.000000	72.270	162.9104
4180.000000	72.178	163.5733
4250.000000	72.080	164.4679
4310.000000	72.012	165.2858
4370.000000	71.965	166.0570
4440.000000	71.953	166.7856
4500.000000	71.991	167.2110
4550.000000	72.056	167.3954
4620.000000	72.181	167.2915
4680.000000	72.289	166.7530
4750.000000	72.372	165.5784
4820.000000	72.365	163.9943
4870.000000	72.291	162.7787
4940.000000	72.080	161.2502
5000.000000	71.813	160.3565
5080.000000	71.382	160.0300
5150.000000	70.992	160.5792
5220.000000	70.634	161.7568
5300.000000	70.293	163.5875
5380.000000	70.031	165.6320
5450.000000	69.866	167.4427
5520.000000	69.755	169.2446
5600.000000	69.683	171.2866
5700.000000	69.659	173.7589
5800.000000	69.705	176.0460
5900.000000	69.811	178.1020
6000.000000	69.966	179.9552
6080.000000	70.116	-178.6705
6150.000000	70.264	-177.5255
6220.000000	70.429	-176.4387
6300.000000	70.641	-175.3001
6400.000000	70.946	-174.0929
6500.000000	71.305	-173.1721
6600.000000	71.727	-172.5658
6700.000000	72.219	-172.3528
6800.000000	72.782	-172.6785
6900.000000	73.406	-173.7214
7000.000000	74.073	-175.6821
7100.000000	74.755	-178.8245
7200.000000	75.405	176.5974
7300.000000	75.951	170.4828
7400.000000	76.317	162.9737
7500.000000	76.444	154.5353
7620.000000	76.238	144.2415
7750.000000	75.577	134.3529
7880.000000	74.531	126.8736
8000.000000	73.324	122.3576
8120.000000	71.988	119.8837
8250.000000	70.503	119.0660
8380.000000	69.065	119.6849
8500.000000	67.837	121.1361
8620.000000	66.739	123.1875
8750.000000	65.706	125.9596
8850.000000	65.007	128.4354
9000.000000	64.087	132.5742
9120.000000	63.443	136.0993
9250.000000	62.814	140.0204
9380.000000	62.256	144.0321
9500.000000	61.818	147.8164
9620.000000	61.459	151.6854
9750.000000	61.156	155.9294
9880.000000	60.938	160.0977
10000.000000	60.805	163.7710
10150.000000	60.712	168.1575
10300.000000	60.693	172.3969
10440.000000	60.752	176.2232
10600.000000	60.919	-179.6472
10750.000000	61.170	-176.1617
10900.000000	61.512	-173.2749
11060.000000	61.959	-171.1500
11200.000000	62.386	-170.2504
11380.000000	62.916	-170.4940
11500.000000	63.219	-171.5313
11720.000000	63.583	-174.9605
11800.000000	63.644	-176.5143
12060.000000	63.578	178.3085
12200.000000	63.397	175.7346
12410.000000	62.982	172.2861
12500.000000	62.763	170.9523
12650.000000	62.352	168.9029
12800.000000	61.870	167.0667
13150.000000	60.314	163.7375
13200.000000	60.032	163.4356
13400.000000	58.759	163.1547
13600.000000	57.327	164.9032
13800.000000	55.916	168.2542
14000.000000	54.729	170.5100
14300.000000	53.587	156.3089
14500.000000	53.181	116.3663
14750.000000	52.960	22.5910
15000.000000	53.001	-70.4274
15250.000000	53.221	-116.6291
15500.000000	53.507	-129.2684
15750.000000	53.776	-130.3751
16000.000000	54.045	-129.9108
16250.000000	54.273	-130.4825
16500.000000	54.299	-131.6630
16750.000000	54.024	-132.0024
17000.000000	53.516	-129.7188
17250.000000	53.044	-123.4423
17500.000000	53.044	-113.4575
17750.000000	53.878	-101.8134
18000.000000	55.479	-91.6843
18250.000000	57.402	-85.8605
18500.000000	59.218	-85.3595
18750.000000	60.674	-89.5889
19000.000000	61.665	-97.0348
19250.000000	62.183	-105.8607
19500.000000	62.286	-114.3273
19750.000000	62.122	-120.9432
