* Measurement data measured by REW V5.31.3
* Source: Microphone (6- USB Sound Device        ), MICROPHONE (Master Volume), L, volume: 0.700
* Format: 256k Log Swept Sine, 1 sweep at -12.0 dBFS with no timing reference
* Dated: 06-Jun-2025 10:19:03
* REW Settings:
*  C-weighting compensation: Off
*  Target level: 75.0 dB
* Note: 
* Measurement: Cap3 Pro Plus Pop L
* Smoothing: 1/12 octave
* Frequency Step: 1/48 octave
* Start Frequency: 20.300 Hz
*
* Freq(Hz)	SPL(dB)	Phase(degrees)
20.299999	82.684	158.1407
20.600000	82.662	158.9541
20.900000	82.639	159.9459
21.200001	82.622	160.9572
21.400000	82.614	161.6100
21.799999	82.605	162.8457
22.000000	82.605	163.4321
22.400000	82.616	164.5562
22.700001	82.633	165.3629
23.000000	82.658	166.1367
23.299999	82.691	166.8728
23.600000	82.729	167.5672
24.000000	82.782	168.4301
24.299999	82.822	169.0364
24.700001	82.876	169.8002
25.000000	82.918	170.3413
25.400000	82.977	171.0137
25.799999	83.038	171.6189
26.200001	83.100	172.1527
26.500000	83.145	172.5114
26.900000	83.202	172.9487
27.200001	83.244	173.2558
27.600000	83.299	173.6466
28.000000	83.355	174.0169
28.500000	83.428	174.4425
29.000000	83.502	174.8163
29.500000	83.576	175.1355
30.000000	83.647	175.4076
30.400000	83.701	175.6004
30.700001	83.740	175.7350
31.100000	83.790	175.9032
31.500000	83.842	176.0572
32.000000	83.907	176.2225
32.500000	83.973	176.3553
33.000000	84.036	176.4675
33.500000	84.094	176.5787
34.000000	84.151	176.6953
34.500000	84.209	176.8011
35.000000	84.269	176.8683
35.500000	84.328	176.8780
36.000000	84.386	176.8328
36.500000	84.441	176.7553
37.000000	84.495	176.6767
37.500000	84.547	176.6190
38.200001	84.619	176.5670
38.700001	84.669	176.5163
39.500000	84.737	176.3601
40.000000	84.770	176.2254
40.599998	84.803	176.0538
41.200001	84.837	175.8830
41.799999	84.875	175.7147
42.500000	84.923	175.5275
43.099998	84.964	175.3716
43.700001	85.004	175.2019
44.400002	85.045	174.9740
45.000000	85.074	174.7668
45.500000	85.096	174.5992
46.200001	85.124	174.3826
46.799999	85.146	174.2173
47.500000	85.170	174.0512
48.200001	85.194	173.9010
48.700001	85.214	173.7860
49.400002	85.245	173.5977
50.000000	85.270	173.4169
50.799999	85.296	173.1850
51.500000	85.314	173.0117
52.200001	85.333	172.8520
53.000000	85.358	172.6497
53.799999	85.387	172.4178
54.500000	85.413	172.2157
55.200001	85.440	172.0368
56.000000	85.474	171.8516
57.000000	85.521	171.5800
58.000000	85.572	171.2042
59.000000	85.621	170.7547
60.000000	85.663	170.2841
60.799999	85.690	169.8897
61.500000	85.710	169.5214
62.200001	85.728	169.1325
63.000000	85.746	168.6788
64.000000	85.761	168.1377
65.000000	85.767	167.6338
66.000000	85.770	167.1143
67.000000	85.771	166.5430
68.000000	85.767	165.9507
69.000000	85.760	165.3904
70.000000	85.750	164.8786
71.000000	85.738	164.4114
72.000000	85.728	163.9733
73.000000	85.719	163.5440
74.000000	85.709	163.1306
75.000000	85.696	162.7466
76.199997	85.674	162.3137
77.500000	85.653	161.8223
78.800003	85.636	161.2737
80.000000	85.615	160.7652
81.199997	85.591	160.2806
82.500000	85.568	159.7668
83.800003	85.550	159.2563
85.000000	85.532	158.7829
86.199997	85.507	158.3000
87.500000	85.476	157.7704
88.500000	85.451	157.3648
90.000000	85.408	156.7704
91.199997	85.368	156.3165
92.500000	85.325	155.8372
93.800003	85.289	155.3590
95.000000	85.262	154.9115
96.199997	85.232	154.4628
97.500000	85.194	153.9915
98.800003	85.153	153.5388
100.000000	85.119	153.1245
101.500000	85.076	152.5887
103.000000	85.029	152.0203
104.400002	84.983	151.4637
106.000000	84.926	150.8499
107.500000	84.862	150.3623
109.000000	84.788	149.9319
110.599998	84.706	149.4344
112.000000	84.635	148.9469
113.800003	84.548	148.3139
115.000000	84.492	147.9129
117.199997	84.383	147.2226
118.000000	84.342	146.9856
120.599998	84.206	146.2554
122.000000	84.132	145.9002
124.099998	84.020	145.4380
125.000000	83.970	145.2502
126.500000	83.888	144.9179
128.000000	83.807	144.5469
131.500000	83.612	143.6549
132.000000	83.582	143.5380
134.000000	83.456	143.0930
136.000000	83.323	142.6795
138.000000	83.189	142.2991
140.000000	83.057	141.9625
143.000000	82.864	141.5615
145.000000	82.738	141.3562
147.500000	82.580	141.1785
150.000000	82.418	141.0327
152.500000	82.258	140.8652
155.000000	82.103	140.7306
157.500000	81.954	140.6839
160.000000	81.806	140.7061
162.500000	81.660	140.7210
165.000000	81.516	140.7382
167.500000	81.380	140.8192
170.000000	81.248	140.9781
172.500000	81.114	141.2172
175.000000	80.975	141.5294
177.500000	80.833	141.8676
180.000000	80.688	142.1864
182.500000	80.545	142.4984
185.000000	80.398	142.8293
187.500000	80.243	143.1975
190.000000	80.088	143.6174
192.500000	79.948	144.0884
195.000000	79.829	144.6157
197.500000	79.730	145.1870
200.000000	79.644	145.7706
203.000000	79.558	146.4481
206.000000	79.490	147.1012
209.000000	79.435	147.7698
212.000000	79.384	148.4677
214.000000	79.350	148.9383
218.000000	79.280	149.8551
220.000000	79.245	150.2989
224.000000	79.177	151.1659
227.000000	79.130	151.7986
230.000000	79.086	152.4279
233.000000	79.046	153.0572
236.000000	79.011	153.6658
240.000000	78.974	154.4321
243.000000	78.950	154.9919
247.000000	78.925	155.7212
250.000000	78.912	156.2334
254.000000	78.905	156.8652
258.000000	78.900	157.4852
262.000000	78.893	158.1326
265.000000	78.886	158.6409
269.000000	78.876	159.3495
272.000000	78.873	159.9179
276.000000	78.883	160.7180
280.000000	78.913	161.4990
285.000000	78.977	162.3406
290.000000	79.052	162.9873
295.000000	79.126	163.4657
300.000000	79.196	163.8199
304.000000	79.248	164.0540
307.000000	79.287	164.2126
311.000000	79.337	164.3976
315.000000	79.385	164.5419
320.000000	79.441	164.6925
325.000000	79.495	164.8490
330.000000	79.550	164.9913
335.000000	79.603	165.0894
340.000000	79.651	165.1660
345.000000	79.695	165.2172
350.000000	79.733	165.1890
355.000000	79.764	165.0963
360.000000	79.795	165.0182
365.000000	79.830	164.9543
370.000000	79.865	164.8653
375.000000	79.896	164.7670
382.000000	79.935	164.6454
387.000000	79.961	164.5634
395.000000	80.000	164.3649
400.000000	80.023	164.1610
406.000000	80.044	163.8394
412.000000	80.058	163.4712
418.000000	80.063	163.1032
425.000000	80.058	162.7320
431.000000	80.043	162.4790
437.000000	80.023	162.2512
444.000000	79.990	161.9490
450.000000	79.958	161.6718
455.000000	79.931	161.4556
462.000000	79.890	161.1977
468.000000	79.850	161.0181
475.000000	79.801	160.8422
482.000000	79.752	160.7126
487.000000	79.718	160.6547
494.000000	79.675	160.6191
500.000000	79.645	160.6364
508.000000	79.607	160.7114
515.000000	79.565	160.7993
522.000000	79.515	160.8868
530.000000	79.459	160.9528
538.000000	79.408	160.9798
545.000000	79.365	161.0000
552.000000	79.324	161.0479
560.000000	79.279	161.1566
570.000000	79.228	161.3813
580.000000	79.180	161.6923
590.000000	79.134	162.0144
600.000000	79.093	162.3343
608.000000	79.064	162.5977
615.000000	79.038	162.8419
622.000000	79.010	163.1126
630.000000	78.978	163.4542
640.000000	78.946	163.8982
650.000000	78.924	164.3283
660.000000	78.909	164.7345
670.000000	78.902	165.1041
680.000000	78.903	165.4589
690.000000	78.910	165.8295
700.000000	78.921	166.2081
710.000000	78.937	166.5735
720.000000	78.955	166.9236
730.000000	78.978	167.2678
740.000000	79.004	167.5908
750.000000	79.034	167.8724
762.000000	79.068	168.1475
775.000000	79.098	168.4210
788.000000	79.126	168.6980
800.000000	79.152	168.9460
812.000000	79.180	169.1884
825.000000	79.211	169.4715
838.000000	79.247	169.7434
850.000000	79.286	169.9551
862.000000	79.324	170.1492
875.000000	79.364	170.3671
885.000000	79.397	170.5207
900.000000	79.447	170.6954
912.000000	79.487	170.8211
925.000000	79.533	170.9641
938.000000	79.578	171.0895
950.000000	79.616	171.1852
962.000000	79.653	171.2738
975.000000	79.699	171.3485
988.000000	79.751	171.3765
1000.000000	79.797	171.3847
1015.000000	79.850	171.4192
1030.000000	79.905	171.4555
1044.000000	79.966	171.4633
1060.000000	80.044	171.4427
1075.000000	80.115	171.3967
1090.000000	80.173	171.2969
1106.000000	80.222	171.1259
1120.000000	80.262	170.9648
1138.000000	80.315	170.7646
1150.000000	80.351	170.6083
1172.000000	80.415	170.2903
1180.000000	80.437	170.1682
1206.000000	80.510	169.7375
1220.000000	80.551	169.5176
1241.000000	80.617	169.2307
1250.000000	80.649	169.1225
1265.000000	80.705	168.9630
1280.000000	80.765	168.8282
1315.000000	80.885	168.5840
1320.000000	80.895	168.5555
1340.000000	80.908	168.4563
1360.000000	80.873	168.3858
1380.000000	80.804	168.3601
1400.000000	80.727	168.3780
1430.000000	80.639	168.4576
1450.000000	80.609	168.5505
1475.000000	80.602	168.7425
1500.000000	80.625	168.9647
1525.000000	80.668	169.1772
1550.000000	80.729	169.3814
1575.000000	80.807	169.5740
1600.000000	80.894	169.7939
1625.000000	80.984	170.0123
1650.000000	81.067	170.2211
1675.000000	81.147	170.3995
1700.000000	81.240	170.5435
1725.000000	81.344	170.7052
1750.000000	81.451	170.8882
1775.000000	81.562	171.0315
1800.000000	81.676	171.1230
1825.000000	81.792	171.1715
1850.000000	81.908	171.1839
1875.000000	82.022	171.1732
1900.000000	82.136	171.1490
1925.000000	82.253	171.1031
1950.000000	82.372	171.0353
1975.000000	82.493	170.9526
2000.000000	82.616	170.8532
2030.000000	82.757	170.6960
2060.000000	82.897	170.5049
2090.000000	83.046	170.2970
2120.000000	83.204	170.0733
2140.000000	83.313	169.8980
2180.000000	83.531	169.4547
2200.000000	83.640	169.2096
2240.000000	83.860	168.6782
2270.000000	84.025	168.1929
2300.000000	84.192	167.6270
2330.000000	84.363	166.9988
2360.000000	84.534	166.3199
2400.000000	84.752	165.3498
2430.000000	84.910	164.5814
2470.000000	85.113	163.4926
2500.000000	85.259	162.6256
2540.000000	85.441	161.4030
2580.000000	85.611	160.1141
2620.000000	85.769	158.7735
2650.000000	85.883	157.7330
2690.000000	86.026	156.2879
2720.000000	86.126	155.1487
2760.000000	86.250	153.5672
2800.000000	86.365	151.9625
2850.000000	86.487	149.9738
2900.000000	86.577	147.9959
2950.000000	86.643	146.0340
3000.000000	86.690	144.1331
3040.000000	86.709	142.6224
3070.000000	86.714	141.4908
3110.000000	86.713	140.0044
3150.000000	86.704	138.5569
3200.000000	86.678	136.7959
3250.000000	86.640	135.1077
3300.000000	86.594	133.5189
3350.000000	86.541	132.0444
3400.000000	86.477	130.6881
3450.000000	86.399	129.4307
3500.000000	86.311	128.2560
3550.000000	86.218	127.1599
3600.000000	86.123	126.1458
3650.000000	86.031	125.2309
3700.000000	85.946	124.4218
3750.000000	85.872	123.7155
3820.000000	85.787	122.8775
3870.000000	85.741	122.3595
3950.000000	85.692	121.6326
4000.000000	85.665	121.2540
4060.000000	85.627	120.8815
4120.000000	85.583	120.5663
4180.000000	85.540	120.2879
4250.000000	85.501	119.9777
4310.000000	85.481	119.6972
4370.000000	85.477	119.3766
4440.000000	85.500	118.9072
4500.000000	85.552	118.3937
4550.000000	85.616	117.8745
4620.000000	85.727	116.9872
4680.000000	85.831	116.0541
4750.000000	85.949	114.7442
4820.000000	86.053	113.1834
4870.000000	86.112	111.9061
4940.000000	86.167	109.8860
5000.000000	86.184	107.9585
5080.000000	86.151	105.1624
5150.000000	86.046	102.5559
5220.000000	85.855	99.8973
5300.000000	85.522	96.9827
5380.000000	85.068	94.4268
5450.000000	84.585	92.6677
5520.000000	84.038	91.4889
5600.000000	83.365	90.9500
5700.000000	82.510	91.5984
5800.000000	81.723	93.7596
5900.000000	81.085	97.2072
6000.000000	80.636	101.4966
6080.000000	80.414	105.2199
6150.000000	80.309	108.5151
6220.000000	80.276	111.7414
6300.000000	80.317	115.2573
6400.000000	80.472	119.3078
6500.000000	80.724	122.9038
6600.000000	81.059	125.9870
6700.000000	81.469	128.5284
6800.000000	81.951	130.5008
6900.000000	82.496	131.8594
7000.000000	83.092	132.5121
7100.000000	83.727	132.2988
7200.000000	84.381	131.0807
7300.000000	85.013	128.7872
7400.000000	85.571	125.4658
7500.000000	86.011	121.2768
7620.000000	86.325	115.4069
7750.000000	86.317	108.6395
7880.000000	85.899	102.4209
8000.000000	85.188	97.9485
8120.000000	84.256	95.0882
8250.000000	83.122	93.8686
8380.000000	81.979	94.3704
8500.000000	81.003	96.0455
8620.000000	80.143	98.5940
8750.000000	79.352	102.0573
8850.000000	78.836	105.0686
9000.000000	78.184	109.9615
9120.000000	77.746	114.1040
9250.000000	77.342	118.7322
9380.000000	77.007	123.4473
9500.000000	76.760	127.8488
9620.000000	76.574	132.2734
9750.000000	76.433	137.0581
9880.000000	76.349	141.8092
10000.000000	76.318	146.1675
10150.000000	76.340	151.5777
10300.000000	76.420	156.9256
10440.000000	76.537	161.8192
10600.000000	76.718	167.2452
10750.000000	76.932	172.1566
10900.000000	77.186	176.9087
11060.000000	77.497	-178.1642
11200.000000	77.794	-173.9162
11380.000000	78.205	-168.4091
11500.000000	78.508	-164.6279
11720.000000	79.176	-157.3582
11800.000000	79.472	-154.5959
12060.000000	80.731	-145.3471
12200.000000	81.653	-140.5072
12410.000000	83.410	-134.3645
12500.000000	84.289	-132.5170
12650.000000	85.863	-131.0583
12800.000000	87.467	-132.1629
13150.000000	90.405	-145.9742
13200.000000	90.642	-149.0188
13400.000000	90.968	-162.3625
13600.000000	90.310	-174.9030
13800.000000	88.954	176.1592
14000.000000	87.351	171.8663
14300.000000	85.361	172.2325
14500.000000	84.577	174.2522
14750.000000	84.019	175.9692
15000.000000	83.503	176.3009
15250.000000	82.736	176.6093
15500.000000	81.701	178.4729
15750.000000	80.582	-177.4796
16000.000000	79.649	-171.3493
16250.000000	79.193	-164.1590
16500.000000	79.296	-157.6445
16750.000000	79.826	-153.2127
17000.000000	80.533	-151.9991
17250.000000	81.095	-154.3914
17500.000000	81.199	-159.5413
17750.000000	80.627	-165.0020
18000.000000	79.442	-166.1953
18250.000000	78.247	-158.6316
18500.000000	77.713	-147.0464
18750.000000	77.621	-138.5421
19000.000000	77.582	-134.3196
19250.000000	77.418	-134.2534
19500.000000	77.135	-135.2385
19750.000000	76.825	-135.4848
20000.000000	76.620	-135.2906
