* Measurement data measured by REW V5.31.3
* Source: Microphone (6- USB Sound Device        ), MICROPHONE (Master Volume), L, volume: 0.700
* Format: 256k Log Swept Sine, 1 sweep at -12.0 dBFS with no timing reference
* Dated: 06-Jun-2025 10:13:17
* REW Settings:
*  C-weighting compensation: Off
*  Target level: 75.0 dB
* Note: 
* Measurement: Cap3 Pro Plus Rock R
* Smoothing: 1/12 octave
* Frequency Step: 1/48 octave
* Start Frequency: 20.300 Hz
*
* Freq(Hz)	SPL(dB)	Phase(degrees)
20.299999	84.631	173.7613
20.600000	84.641	174.6115
20.900000	84.663	175.6666
21.200001	84.696	176.7615
21.400000	84.724	177.4732
21.799999	84.793	178.8062
22.000000	84.831	179.4208
22.400000	84.913	-179.4492
22.700001	84.978	-178.6758
23.000000	85.045	-177.9529
23.299999	85.115	-177.2727
23.600000	85.188	-176.6307
24.000000	85.292	-175.8315
24.299999	85.373	-175.2749
24.700001	85.489	-174.5909
25.000000	85.579	-174.1223
25.400000	85.703	-173.5570
25.799999	85.828	-173.0591
26.200001	85.950	-172.6252
26.500000	86.039	-172.3393
26.900000	86.153	-172.0078
27.200001	86.235	-171.7951
27.600000	86.342	-171.5577
28.000000	86.448	-171.3702
28.500000	86.580	-171.2004
29.000000	86.711	-171.0974
29.500000	86.840	-171.0579
30.000000	86.964	-171.0715
30.400000	87.054	-171.1037
30.700001	87.117	-171.1290
31.100000	87.195	-171.1536
31.500000	87.272	-171.1661
32.000000	87.370	-171.1825
32.500000	87.475	-171.2333
33.000000	87.581	-171.3409
33.500000	87.684	-171.4966
34.000000	87.781	-171.6704
34.500000	87.872	-171.8371
35.000000	87.958	-171.9919
35.500000	88.043	-172.1489
36.000000	88.127	-172.3279
36.500000	88.210	-172.5428
37.000000	88.291	-172.7979
37.500000	88.368	-173.0870
38.200001	88.466	-173.5252
38.700001	88.529	-173.8454
39.500000	88.624	-174.3537
40.000000	88.682	-174.6656
40.599998	88.749	-175.0306
41.200001	88.817	-175.3869
41.799999	88.885	-175.7470
42.500000	88.961	-176.1929
43.099998	89.021	-176.6008
43.700001	89.076	-177.0226
44.400002	89.141	-177.5173
45.000000	89.196	-177.9308
45.500000	89.241	-178.2620
46.200001	89.299	-178.7126
46.799999	89.345	-179.1136
47.500000	89.392	-179.6291
48.200001	89.434	179.8194
48.700001	89.466	179.4322
49.400002	89.515	178.9237
50.000000	89.558	178.5132
50.799999	89.607	177.9826
51.500000	89.638	177.5367
52.200001	89.667	177.1087
53.000000	89.706	176.6148
53.799999	89.751	176.0909
54.500000	89.793	175.6039
55.200001	89.834	175.0882
56.000000	89.878	174.4693
57.000000	89.929	173.6787
58.000000	89.980	172.8754
59.000000	90.031	172.0314
60.000000	90.078	171.1242
60.799999	90.110	170.3551
61.500000	90.130	169.6667
62.200001	90.143	168.9782
63.000000	90.148	168.2006
64.000000	90.143	167.2438
65.000000	90.134	166.2992
66.000000	90.126	165.3661
67.000000	90.117	164.4620
68.000000	90.102	163.6180
69.000000	90.078	162.8320
70.000000	90.048	162.0656
71.000000	90.013	161.3092
72.000000	89.977	160.5806
73.000000	89.940	159.8775
74.000000	89.901	159.1749
75.000000	89.861	158.4526
76.199997	89.808	157.5752
77.500000	89.744	156.6821
78.800003	89.671	155.9071
80.000000	89.606	155.2727
81.199997	89.552	154.6325
82.500000	89.500	153.8872
83.800003	89.444	153.1216
85.000000	89.385	152.4384
86.199997	89.322	151.8032
87.500000	89.252	151.1643
88.500000	89.200	150.6813
90.000000	89.125	149.9436
91.199997	89.063	149.3735
92.500000	88.993	148.8038
93.800003	88.918	148.2464
95.000000	88.846	147.7023
96.199997	88.775	147.1351
97.500000	88.701	146.5304
98.800003	88.635	145.9592
100.000000	88.579	145.4617
101.500000	88.508	144.8786
103.000000	88.429	144.3384
104.400002	88.348	143.8346
106.000000	88.249	143.2075
107.500000	88.152	142.5826
109.000000	88.054	141.9756
110.599998	87.954	141.3791
112.000000	87.866	140.8949
113.800003	87.745	140.3050
115.000000	87.663	139.9185
117.199997	87.519	139.1995
118.000000	87.467	138.9385
120.599998	87.294	138.1596
122.000000	87.201	137.8027
124.099998	87.060	137.2808
125.000000	86.997	137.0373
126.500000	86.886	136.6080
128.000000	86.774	136.1885
131.500000	86.517	135.4135
132.000000	86.481	135.3188
134.000000	86.329	134.9359
136.000000	86.171	134.5504
138.000000	86.011	134.2031
140.000000	85.853	133.8983
143.000000	85.624	133.5220
145.000000	85.477	133.3275
147.500000	85.299	133.1417
150.000000	85.123	133.0292
152.500000	84.942	132.9250
155.000000	84.757	132.7882
157.500000	84.579	132.6958
160.000000	84.408	132.7088
162.500000	84.236	132.8145
165.000000	84.063	132.9770
167.500000	83.887	133.1720
170.000000	83.712	133.3864
172.500000	83.547	133.6267
175.000000	83.391	133.8831
177.500000	83.240	134.1545
180.000000	83.091	134.4665
182.500000	82.937	134.8314
185.000000	82.769	135.2519
187.500000	82.593	135.7180
190.000000	82.425	136.2201
192.500000	82.272	136.7447
195.000000	82.139	137.2689
197.500000	82.023	137.7969
200.000000	81.921	138.3461
203.000000	81.817	139.0170
206.000000	81.736	139.6945
209.000000	81.674	140.3941
212.000000	81.616	141.1043
214.000000	81.574	141.5655
218.000000	81.478	142.4711
220.000000	81.429	142.9338
224.000000	81.336	143.9346
227.000000	81.272	144.7718
230.000000	81.217	145.6533
233.000000	81.175	146.5062
236.000000	81.149	147.2726
240.000000	81.131	148.1513
243.000000	81.122	148.7388
247.000000	81.109	149.4892
250.000000	81.099	150.0348
254.000000	81.090	150.7081
258.000000	81.086	151.3085
262.000000	81.085	151.8671
265.000000	81.086	152.2605
269.000000	81.091	152.7563
272.000000	81.094	153.1125
276.000000	81.099	153.5604
280.000000	81.105	153.9669
285.000000	81.118	154.4187
290.000000	81.134	154.8755
295.000000	81.154	155.3445
300.000000	81.181	155.7602
304.000000	81.204	156.0447
307.000000	81.221	156.2373
311.000000	81.243	156.4626
315.000000	81.263	156.6398
320.000000	81.285	156.7959
325.000000	81.301	156.9328
330.000000	81.316	157.0839
335.000000	81.336	157.2413
340.000000	81.363	157.3705
345.000000	81.390	157.4148
350.000000	81.403	157.3818
355.000000	81.402	157.3371
360.000000	81.400	157.2973
365.000000	81.404	157.2271
370.000000	81.411	157.1058
375.000000	81.418	156.9617
382.000000	81.429	156.7818
387.000000	81.438	156.6673
395.000000	81.446	156.4271
400.000000	81.440	156.2273
406.000000	81.422	155.9926
412.000000	81.394	155.7910
418.000000	81.359	155.6023
425.000000	81.311	155.3233
431.000000	81.263	154.9805
437.000000	81.208	154.6273
444.000000	81.136	154.3318
450.000000	81.069	154.1310
455.000000	81.012	153.9495
462.000000	80.931	153.7031
468.000000	80.860	153.5497
475.000000	80.772	153.4690
482.000000	80.680	153.4877
487.000000	80.610	153.5296
494.000000	80.511	153.5630
500.000000	80.434	153.5641
508.000000	80.342	153.6102
515.000000	80.258	153.7209
522.000000	80.169	153.8769
530.000000	80.063	154.1143
538.000000	79.951	154.3957
545.000000	79.850	154.6499
552.000000	79.749	154.8970
560.000000	79.640	155.1707
570.000000	79.511	155.5447
580.000000	79.387	156.0222
590.000000	79.272	156.5776
600.000000	79.159	157.1799
608.000000	79.069	157.7092
615.000000	78.990	158.2287
622.000000	78.913	158.8022
630.000000	78.832	159.5067
640.000000	78.740	160.3935
650.000000	78.662	161.2259
660.000000	78.596	162.0553
670.000000	78.540	162.9260
680.000000	78.492	163.8200
690.000000	78.453	164.7068
700.000000	78.426	165.5673
710.000000	78.407	166.3956
720.000000	78.392	167.1914
730.000000	78.374	167.9580
740.000000	78.352	168.7211
750.000000	78.327	169.4880
762.000000	78.301	170.3621
775.000000	78.282	171.2762
788.000000	78.272	172.2422
800.000000	78.270	173.2192
812.000000	78.269	174.2407
825.000000	78.269	175.3252
838.000000	78.277	176.3596
850.000000	78.294	177.2867
862.000000	78.315	178.1942
875.000000	78.343	179.1376
885.000000	78.367	179.8342
900.000000	78.410	-179.1372
912.000000	78.450	-178.2979
925.000000	78.500	-177.3720
938.000000	78.556	-176.4724
950.000000	78.610	-175.6835
962.000000	78.665	-174.9220
975.000000	78.726	-174.1298
988.000000	78.790	-173.3783
1000.000000	78.855	-172.6985
1015.000000	78.948	-171.8229
1030.000000	79.050	-170.9477
1044.000000	79.144	-170.2023
1060.000000	79.253	-169.4449
1075.000000	79.359	-168.7805
1090.000000	79.466	-168.1551
1106.000000	79.578	-167.5718
1120.000000	79.678	-167.1284
1138.000000	79.816	-166.5807
1150.000000	79.912	-166.2103
1172.000000	80.083	-165.5538
1180.000000	80.144	-165.3268
1206.000000	80.340	-164.6151
1220.000000	80.451	-164.2464
1241.000000	80.629	-163.7448
1250.000000	80.710	-163.5499
1265.000000	80.850	-163.2421
1280.000000	80.995	-162.9383
1315.000000	81.309	-162.1819
1320.000000	81.347	-162.0719
1340.000000	81.469	-161.6320
1360.000000	81.545	-161.1765
1380.000000	81.587	-160.6994
1400.000000	81.620	-160.2269
1430.000000	81.704	-159.5624
1450.000000	81.794	-159.1349
1475.000000	81.935	-158.5884
1500.000000	82.105	-158.0596
1525.000000	82.295	-157.5638
1550.000000	82.497	-157.1297
1575.000000	82.702	-156.7331
1600.000000	82.912	-156.3158
1625.000000	83.127	-155.9140
1650.000000	83.339	-155.5127
1675.000000	83.548	-155.0958
1700.000000	83.768	-154.6987
1725.000000	84.004	-154.3469
1750.000000	84.252	-154.0314
1775.000000	84.503	-153.7856
1800.000000	84.757	-153.6651
1825.000000	85.012	-153.6729
1850.000000	85.264	-153.7879
1875.000000	85.510	-153.9802
1900.000000	85.746	-154.2319
1925.000000	85.973	-154.5387
1950.000000	86.193	-154.8969
1975.000000	86.408	-155.2997
2000.000000	86.619	-155.7325
2030.000000	86.870	-156.2593
2060.000000	87.116	-156.7825
2090.000000	87.351	-157.3223
2120.000000	87.581	-157.8890
2140.000000	87.737	-158.2765
2180.000000	88.056	-159.0855
2200.000000	88.215	-159.5375
2240.000000	88.525	-160.5512
2270.000000	88.750	-161.3610
2300.000000	88.970	-162.1959
2330.000000	89.191	-163.0754
2360.000000	89.413	-164.0092
2400.000000	89.704	-165.3066
2430.000000	89.914	-166.3201
2470.000000	90.179	-167.7323
2500.000000	90.369	-168.8358
2540.000000	90.614	-170.3646
2580.000000	90.849	-171.9453
2620.000000	91.073	-173.5765
2650.000000	91.229	-174.8352
2690.000000	91.423	-176.5653
2720.000000	91.561	-177.8956
2760.000000	91.734	-179.7128
2800.000000	91.895	178.4287
2850.000000	92.078	176.0855
2900.000000	92.234	173.7238
2950.000000	92.359	171.3753
3000.000000	92.463	169.0768
3040.000000	92.534	167.2736
3070.000000	92.576	165.9359
3110.000000	92.621	164.1774
3150.000000	92.655	162.4582
3200.000000	92.683	160.3975
3250.000000	92.692	158.4535
3300.000000	92.689	156.6103
3350.000000	92.673	154.8667
3400.000000	92.646	153.2169
3450.000000	92.608	151.6613
3500.000000	92.558	150.2075
3550.000000	92.501	148.8537
3600.000000	92.442	147.5964
3650.000000	92.389	146.4306
3700.000000	92.348	145.3385
3750.000000	92.321	144.2890
3820.000000	92.303	142.8947
3870.000000	92.300	141.9843
3950.000000	92.303	140.7006
4000.000000	92.303	139.9980
4060.000000	92.302	139.2202
4120.000000	92.298	138.4733
4180.000000	92.286	137.7346
4250.000000	92.273	136.8862
4310.000000	92.275	136.1673
4370.000000	92.298	135.4153
4440.000000	92.358	134.4484
4500.000000	92.438	133.5050
4550.000000	92.524	132.6016
4620.000000	92.664	131.1035
4680.000000	92.789	129.5755
4750.000000	92.925	127.4962
4820.000000	93.029	125.0928
4870.000000	93.074	123.1760
4940.000000	93.079	120.2394
5000.000000	93.021	117.5544
5080.000000	92.843	113.9064
5150.000000	92.580	110.8296
5220.000000	92.213	108.0533
5300.000000	91.685	105.4887
5380.000000	91.074	103.7556
5450.000000	90.505	102.9777
5520.000000	89.939	102.8809
5600.000000	89.325	103.5443
5700.000000	88.636	105.3568
5800.000000	88.065	108.0369
5900.000000	87.639	111.3645
6000.000000	87.374	115.1124
6080.000000	87.275	118.2402
6150.000000	87.263	120.9651
6220.000000	87.313	123.6080
6300.000000	87.439	126.4399
6400.000000	87.695	129.5759
6500.000000	88.050	132.1557
6600.000000	88.492	134.0774
6700.000000	89.009	135.2375
6800.000000	89.579	135.5241
6900.000000	90.173	134.8285
7000.000000	90.762	133.0534
7100.000000	91.309	130.1525
7200.000000	91.767	126.1519
7300.000000	92.082	121.2140
7400.000000	92.202	115.6917
7500.000000	92.104	110.0615
7620.000000	91.711	103.8154
7750.000000	90.992	98.3751
7880.000000	90.029	94.8073
8000.000000	88.992	93.3256
8120.000000	87.887	93.4869
8250.000000	86.696	95.2135
8380.000000	85.590	98.1734
8500.000000	84.694	101.6768
8620.000000	83.938	105.6640
8750.000000	83.273	110.3127
8850.000000	82.852	114.0225
9000.000000	82.333	119.7007
9120.000000	81.992	124.2952
9250.000000	81.684	129.2829
9380.000000	81.433	134.2646
9500.000000	81.250	138.8743
9620.000000	81.118	143.4948
9750.000000	81.031	148.4943
9880.000000	80.998	153.4840
10000.000000	81.014	158.0877
10150.000000	81.100	163.8180
10300.000000	81.253	169.4779
10440.000000	81.448	174.6470
10600.000000	81.731	-179.6103
10750.000000	82.056	-174.3965
10900.000000	82.445	-169.3643
11060.000000	82.928	-164.1915
11200.000000	83.409	-159.7901
11380.000000	84.124	-154.2304
11500.000000	84.690	-150.5830
11720.000000	86.008	-144.2675
11800.000000	86.602	-142.2555
12060.000000	88.968	-138.2873
12200.000000	90.415	-138.8827
12410.000000	92.460	-144.7335
12500.000000	93.164	-149.0899
12650.000000	93.945	-158.2765
12800.000000	94.116	-168.7071
13150.000000	92.207	171.4401
13200.000000	91.744	169.7626
13400.000000	89.676	166.5122
13600.000000	87.587	168.3062
13800.000000	85.833	173.7365
14000.000000	84.637	-178.9562
14300.000000	83.930	-168.1002
14500.000000	83.952	-162.7194
14750.000000	84.123	-158.7620
15000.000000	84.113	-156.8173
15250.000000	83.792	-154.8764
15500.000000	83.272	-151.4310
15750.000000	82.826	-146.4129
16000.000000	82.765	-140.8864
16250.000000	83.266	-136.9822
16500.000000	84.114	-136.8938
16750.000000	84.865	-141.3171
17000.000000	85.097	-149.3079
17250.000000	84.551	-158.6012
17500.000000	83.207	-166.6241
17750.000000	81.215	-171.0241
18000.000000	78.843	-168.2171
18250.000000	76.705	-152.8557
18500.000000	75.574	-130.8881
18750.000000	75.280	-114.9400
19000.000000	75.280	-105.5917
19250.000000	75.318	-101.2297
19500.000000	75.330	-98.3844
19750.000000	75.311	-95.7378
20000.000000	75.285	-94.0565
