* Measurement data measured by REW V5.31.3
* Source: Microphone (6- USB Sound Device        ), MICROPHONE (Master Volume), L, volume: 0.700
* Format: 256k Log Swept Sine, 1 sweep at -12.0 dBFS with no timing reference
* Dated: 06-Jun-2025 10:16:36
* REW Settings:
*  C-weighting compensation: Off
*  Target level: 75.0 dB
* Note: 
* Measurement: Cap3 Pro Plus R
* Smoothing: 1/12 octave
* Frequency Step: 1/48 octave
* Start Frequency: 20.300 Hz
*
* Freq(Hz)	SPL(dB)	Phase(degrees)
20.299999	85.686	170.0828
20.600000	85.709	170.7404
20.900000	85.743	171.5410
21.200001	85.787	172.3572
21.400000	85.822	172.8822
21.799999	85.902	173.8588
22.000000	85.948	174.3061
22.400000	86.050	175.1177
22.700001	86.132	175.6563
23.000000	86.219	176.1388
23.299999	86.308	176.5690
23.600000	86.400	176.9501
24.000000	86.523	177.3847
24.299999	86.616	177.6557
24.700001	86.740	177.9419
25.000000	86.834	178.0984
25.400000	86.959	178.2292
25.799999	87.083	178.2753
26.200001	87.202	178.2454
26.500000	87.288	178.1797
26.900000	87.397	178.0426
27.200001	87.474	177.9067
27.600000	87.572	177.6856
28.000000	87.664	177.4228
28.500000	87.773	177.0441
29.000000	87.872	176.6234
29.500000	87.963	176.1755
30.000000	88.048	175.7094
30.400000	88.112	175.3231
30.700001	88.158	175.0234
31.100000	88.215	174.6080
31.500000	88.270	174.1743
32.000000	88.333	173.6129
32.500000	88.392	173.0425
33.000000	88.447	172.4726
33.500000	88.496	171.9031
34.000000	88.539	171.3286
34.500000	88.572	170.7503
35.000000	88.596	170.1797
35.500000	88.613	169.6287
36.000000	88.627	169.0965
36.500000	88.642	168.5687
37.000000	88.657	168.0302
37.500000	88.669	167.4769
38.200001	88.677	166.6921
38.700001	88.677	166.1345
39.500000	88.672	165.2544
40.000000	88.666	164.7180
40.599998	88.657	164.0991
41.200001	88.648	163.5070
41.799999	88.639	162.9265
42.500000	88.624	162.2483
43.099998	88.604	161.6759
43.700001	88.579	161.1295
44.400002	88.552	160.5312
45.000000	88.531	160.0437
45.500000	88.514	159.6498
46.200001	88.490	159.1138
46.799999	88.468	158.6639
47.500000	88.443	158.1432
48.200001	88.415	157.6329
48.700001	88.395	157.2854
49.400002	88.365	156.8336
50.000000	88.335	156.4780
50.799999	88.288	156.0339
51.500000	88.243	155.6556
52.200001	88.203	155.2763
53.000000	88.167	154.8407
53.799999	88.141	154.3992
54.500000	88.122	154.0019
55.200001	88.103	153.6004
56.000000	88.081	153.1490
57.000000	88.058	152.5826
58.000000	88.037	151.9803
59.000000	88.015	151.3298
60.000000	87.988	150.6248
60.799999	87.962	150.0348
61.500000	87.935	149.5136
62.200001	87.904	148.9893
63.000000	87.866	148.3824
64.000000	87.813	147.6235
65.000000	87.754	146.8889
66.000000	87.688	146.1795
67.000000	87.615	145.4924
68.000000	87.535	144.8469
69.000000	87.453	144.2436
70.000000	87.369	143.6493
71.000000	87.286	143.0484
72.000000	87.207	142.4626
73.000000	87.135	141.9037
74.000000	87.067	141.3642
75.000000	87.000	140.8498
76.199997	86.914	140.2826
77.500000	86.807	139.7103
78.800003	86.689	139.1459
80.000000	86.581	138.6518
81.199997	86.479	138.2005
82.500000	86.379	137.7166
83.800003	86.285	137.2116
85.000000	86.194	136.7493
86.199997	86.095	136.3076
87.500000	85.984	135.8780
88.500000	85.903	135.5886
90.000000	85.792	135.1583
91.199997	85.711	134.7686
92.500000	85.622	134.3177
93.800003	85.526	133.8898
95.000000	85.433	133.5301
96.199997	85.341	133.1891
97.500000	85.242	132.8320
98.800003	85.142	132.4956
100.000000	85.048	132.2138
101.500000	84.933	131.8832
103.000000	84.826	131.5209
104.400002	84.729	131.1349
106.000000	84.614	130.6817
107.500000	84.498	130.2865
109.000000	84.380	129.9238
110.599998	84.256	129.5758
112.000000	84.149	129.3020
113.800003	84.008	128.9716
115.000000	83.912	128.7536
117.199997	83.730	128.3713
118.000000	83.663	128.2382
120.599998	83.439	127.7889
122.000000	83.318	127.5502
124.099998	83.138	127.2282
125.000000	83.062	127.1096
126.500000	82.938	126.9392
128.000000	82.814	126.7872
131.500000	82.522	126.4449
132.000000	82.480	126.4021
134.000000	82.317	126.2498
136.000000	82.157	126.1132
138.000000	81.993	126.0047
140.000000	81.824	125.9395
143.000000	81.564	125.8744
145.000000	81.394	125.8553
147.500000	81.185	125.9261
150.000000	80.979	126.1082
152.500000	80.776	126.3462
155.000000	80.579	126.5710
157.500000	80.385	126.7801
160.000000	80.190	127.0246
162.500000	80.000	127.3328
165.000000	79.815	127.7170
167.500000	79.630	128.1758
170.000000	79.445	128.6768
172.500000	79.265	129.2111
175.000000	79.091	129.7672
177.500000	78.919	130.3349
180.000000	78.747	130.9284
182.500000	78.578	131.5627
185.000000	78.408	132.2378
187.500000	78.233	132.9670
190.000000	78.059	133.7666
192.500000	77.892	134.6110
195.000000	77.739	135.4425
197.500000	77.602	136.2263
200.000000	77.483	136.9923
203.000000	77.362	137.9620
206.000000	77.265	138.9939
209.000000	77.187	140.0602
212.000000	77.117	141.1740
214.000000	77.069	141.9310
218.000000	76.967	143.4056
220.000000	76.916	144.1210
224.000000	76.824	145.5577
227.000000	76.769	146.6512
230.000000	76.726	147.7470
233.000000	76.696	148.8374
236.000000	76.676	149.9133
240.000000	76.657	151.2858
243.000000	76.643	152.2598
247.000000	76.631	153.5128
250.000000	76.631	154.4049
254.000000	76.640	155.4837
258.000000	76.656	156.4751
262.000000	76.679	157.4380
265.000000	76.700	158.1481
269.000000	76.727	159.0854
272.000000	76.745	159.7709
276.000000	76.768	160.6291
280.000000	76.800	161.4162
285.000000	76.846	162.3424
290.000000	76.891	163.2277
295.000000	76.939	164.0815
300.000000	76.999	164.9076
304.000000	77.056	165.5280
307.000000	77.102	165.9673
311.000000	77.161	166.5195
315.000000	77.217	167.0228
320.000000	77.291	167.5617
325.000000	77.363	168.0243
330.000000	77.428	168.4741
335.000000	77.490	168.8689
340.000000	77.550	169.1667
345.000000	77.605	169.4406
350.000000	77.655	169.7506
355.000000	77.706	170.1056
360.000000	77.762	170.4502
365.000000	77.824	170.7229
370.000000	77.885	170.9053
375.000000	77.940	170.9998
382.000000	78.004	171.0359
387.000000	78.044	171.0318
395.000000	78.114	171.0179
400.000000	78.163	171.0044
406.000000	78.215	170.9580
412.000000	78.249	170.9037
418.000000	78.269	170.8748
425.000000	78.279	170.8734
431.000000	78.279	170.8852
437.000000	78.275	170.8761
444.000000	78.274	170.8079
450.000000	78.274	170.7410
455.000000	78.273	170.7085
462.000000	78.272	170.6890
468.000000	78.268	170.6778
475.000000	78.251	170.6794
482.000000	78.217	170.7237
487.000000	78.189	170.8012
494.000000	78.154	170.9825
500.000000	78.132	171.1684
508.000000	78.109	171.3981
515.000000	78.087	171.5876
522.000000	78.064	171.7914
530.000000	78.036	172.0673
538.000000	78.002	172.3827
545.000000	77.973	172.6667
552.000000	77.951	172.9589
560.000000	77.930	173.3011
570.000000	77.901	173.7414
580.000000	77.878	174.2464
590.000000	77.860	174.7927
600.000000	77.831	175.3704
608.000000	77.806	175.8809
615.000000	77.789	176.3612
622.000000	77.781	176.8598
630.000000	77.784	177.4290
640.000000	77.803	178.1415
650.000000	77.834	178.8678
660.000000	77.880	179.5914
670.000000	77.928	-179.7167
680.000000	77.966	-179.0696
690.000000	78.006	-178.4580
700.000000	78.056	-177.8712
710.000000	78.112	-177.2850
720.000000	78.168	-176.7408
730.000000	78.232	-176.2990
740.000000	78.306	-175.9571
750.000000	78.383	-175.6608
762.000000	78.470	-175.2833
775.000000	78.558	-174.8386
788.000000	78.640	-174.3789
800.000000	78.709	-173.9708
812.000000	78.778	-173.5590
825.000000	78.858	-173.0811
838.000000	78.943	-172.6234
850.000000	79.024	-172.2571
862.000000	79.108	-171.9495
875.000000	79.201	-171.6775
885.000000	79.275	-171.5011
900.000000	79.385	-171.2645
912.000000	79.466	-171.1009
925.000000	79.548	-170.9643
938.000000	79.631	-170.8381
950.000000	79.715	-170.6892
962.000000	79.803	-170.5154
975.000000	79.898	-170.3223
988.000000	79.987	-170.1545
1000.000000	80.061	-170.0356
1015.000000	80.151	-169.9288
1030.000000	80.246	-169.8766
1044.000000	80.339	-169.8780
1060.000000	80.450	-169.9265
1075.000000	80.552	-169.9979
1090.000000	80.646	-170.0961
1106.000000	80.736	-170.2287
1120.000000	80.810	-170.3450
1138.000000	80.908	-170.4813
1150.000000	80.974	-170.5804
1172.000000	81.091	-170.8169
1180.000000	81.131	-170.9151
1206.000000	81.255	-171.2191
1220.000000	81.325	-171.3806
1241.000000	81.446	-171.5985
1250.000000	81.502	-171.6727
1265.000000	81.600	-171.7812
1280.000000	81.699	-171.8829
1315.000000	81.906	-172.0930
1320.000000	81.928	-172.1163
1340.000000	81.987	-172.1758
1360.000000	81.997	-172.1729
1380.000000	81.971	-172.1267
1400.000000	81.935	-172.0671
1430.000000	81.913	-171.9633
1450.000000	81.933	-171.8821
1475.000000	81.997	-171.7684
1500.000000	82.097	-171.6666
1525.000000	82.215	-171.5677
1550.000000	82.340	-171.4061
1575.000000	82.467	-171.1902
1600.000000	82.601	-170.9691
1625.000000	82.739	-170.7697
1650.000000	82.880	-170.6013
1675.000000	83.025	-170.4435
1700.000000	83.179	-170.2703
1725.000000	83.344	-170.1121
1750.000000	83.519	-169.9961
1775.000000	83.703	-169.9651
1800.000000	83.895	-170.0473
1825.000000	84.088	-170.2161
1850.000000	84.277	-170.4513
1875.000000	84.456	-170.7528
1900.000000	84.625	-171.1018
1925.000000	84.788	-171.4829
1950.000000	84.947	-171.8888
1975.000000	85.103	-172.3119
2000.000000	85.254	-172.7465
2030.000000	85.430	-173.2965
2060.000000	85.604	-173.8899
2090.000000	85.777	-174.5039
2120.000000	85.951	-175.1117
2140.000000	86.069	-175.5233
2180.000000	86.307	-176.4105
2200.000000	86.423	-176.8818
2240.000000	86.650	-177.8213
2270.000000	86.820	-178.5445
2300.000000	86.992	-179.3442
2330.000000	87.164	179.7821
2360.000000	87.332	178.8737
2400.000000	87.544	177.6301
2430.000000	87.695	176.6564
2470.000000	87.889	175.3032
2500.000000	88.029	174.2528
2540.000000	88.209	172.8051
2580.000000	88.379	171.3062
2620.000000	88.539	169.7687
2650.000000	88.654	168.5923
2690.000000	88.800	166.9981
2720.000000	88.904	165.7805
2760.000000	89.033	164.1062
2800.000000	89.146	162.3820
2850.000000	89.256	160.2103
2900.000000	89.339	158.0452
2950.000000	89.404	155.8950
3000.000000	89.447	153.7591
3040.000000	89.464	152.1098
3070.000000	89.467	150.9317
3110.000000	89.458	149.4356
3150.000000	89.436	147.9859
3200.000000	89.396	146.2354
3250.000000	89.349	144.5841
3300.000000	89.300	143.0167
3350.000000	89.247	141.5541
3400.000000	89.184	140.2167
3450.000000	89.107	138.9939
3500.000000	89.019	137.8661
3550.000000	88.929	136.8237
3600.000000	88.840	135.8646
3650.000000	88.757	134.9942
3700.000000	88.688	134.2156
3750.000000	88.639	133.5032
3820.000000	88.594	132.5989
3870.000000	88.573	132.0297
3950.000000	88.543	131.2283
4000.000000	88.524	130.7919
4060.000000	88.498	130.3497
4120.000000	88.474	129.9688
4180.000000	88.451	129.6117
4250.000000	88.432	129.1911
4310.000000	88.430	128.8147
4370.000000	88.452	128.4056
4440.000000	88.514	127.8160
4500.000000	88.600	127.1652
4550.000000	88.691	126.4932
4620.000000	88.836	125.3191
4680.000000	88.966	124.0679
4750.000000	89.107	122.3009
4820.000000	89.222	120.2029
4870.000000	89.276	118.5063
4940.000000	89.298	115.8855
5000.000000	89.254	113.4672
5080.000000	89.093	110.1456
5150.000000	88.846	107.3381
5220.000000	88.500	104.8267
5300.000000	88.004	102.5422
5380.000000	87.433	101.0416
5450.000000	86.901	100.4299
5520.000000	86.364	100.4784
5600.000000	85.774	101.2830
5700.000000	85.117	103.2318
5800.000000	84.584	106.0236
5900.000000	84.199	109.4319
6000.000000	83.968	113.2258
6080.000000	83.887	116.4025
6150.000000	83.888	119.1911
6220.000000	83.952	121.9091
6300.000000	84.098	124.8317
6400.000000	84.379	128.0655
6500.000000	84.760	130.7091
6600.000000	85.228	132.6593
6700.000000	85.767	133.8242
6800.000000	86.356	134.1093
6900.000000	86.970	133.4060
7000.000000	87.575	131.6147
7100.000000	88.133	128.6811
7200.000000	88.592	124.6541
7300.000000	88.893	119.7304
7400.000000	88.989	114.2836
7500.000000	88.863	108.8010
7620.000000	88.443	102.8309
7750.000000	87.714	97.7865
7880.000000	86.761	94.6827
8000.000000	85.747	93.6407
8120.000000	84.676	94.2000
8250.000000	83.533	96.2956
8380.000000	82.480	99.5707
8500.000000	81.638	103.3372
8620.000000	80.939	107.5548
8750.000000	80.335	112.4064
8850.000000	79.962	116.2542
9000.000000	79.516	122.1226
9120.000000	79.232	126.8314
9250.000000	78.985	131.9044
9380.000000	78.791	136.9480
9500.000000	78.661	141.5886
9620.000000	78.582	146.2207
9750.000000	78.557	151.2365
9880.000000	78.593	156.2388
10000.000000	78.678	160.8148
10150.000000	78.849	166.4601
10300.000000	79.082	172.0138
10440.000000	79.349	177.0708
10600.000000	79.713	-177.3377
10750.000000	80.114	-172.2943
10900.000000	80.575	-167.4423
11060.000000	81.134	-162.4718
11200.000000	81.683	-158.2722
11380.000000	82.491	-152.9887
11500.000000	83.124	-149.5355
11720.000000	84.588	-143.6753
11800.000000	85.241	-141.8902
12060.000000	87.780	-138.9981
12200.000000	89.284	-140.3605
12410.000000	91.345	-147.4378
12500.000000	92.031	-152.2794
12650.000000	92.750	-162.1144
12800.000000	92.840	-172.8932
13150.000000	90.786	167.5423
13200.000000	90.317	165.9667
13400.000000	88.265	163.0885
13600.000000	86.253	165.0369
13800.000000	84.621	170.3349
14000.000000	83.556	177.2690
14300.000000	82.999	-172.6568
14500.000000	83.093	-167.8127
14750.000000	83.332	-164.4714
15000.000000	83.376	-163.0941
15250.000000	83.106	-161.6523
15500.000000	82.651	-158.6314
15750.000000	82.282	-154.0740
16000.000000	82.300	-149.1343
16250.000000	82.869	-145.9604
16500.000000	83.758	-146.7141
16750.000000	84.514	-151.9663
17000.000000	84.721	-160.6420
17250.000000	84.140	-170.4091
17500.000000	82.772	-178.6959
17750.000000	80.771	176.7917
18000.000000	78.408	179.5734
18250.000000	76.309	-165.2024
18500.000000	75.243	-143.8590
18750.000000	75.019	-128.6619
19000.000000	75.081	-119.9003
19250.000000	75.163	-115.9243
19500.000000	75.208	-113.4485
19750.000000	75.213	-111.1750
20000.000000	75.200	-109.7347
