* Measurement data measured by REW V5.31.3
* Source: Microphone (USB Sound Device        ), MICROPHONE (Master Volume), L, volume: 0.800
* Format: 256k Log Swept Sine, 1 sweep at -12.0 dBFS with no timing reference
* Dated: 29-Jan-2025 16:49:45
* REW Settings:
*  C-weighting compensation: Off
*  Target level: 75.0 dB
* Note: 
* Measurement: Cap3 Pro Plus off L
* Smoothing: 1/12 octave
* Frequency Step: 1/48 octave
* Start Frequency: 20.300 Hz
*
* Freq(Hz)	SPL(dB)	Phase(degrees)
20.299999	101.628	173.2761
20.600000	101.643	173.9595
20.900000	101.674	174.8046
21.200001	101.723	175.6561
21.400000	101.764	176.1817
21.799999	101.857	177.0760
22.000000	101.906	177.4404
22.400000	102.003	178.0305
22.700001	102.072	178.3867
23.000000	102.141	178.6973
23.299999	102.212	178.9755
23.600000	102.287	179.2231
24.000000	102.394	179.4981
24.299999	102.476	179.6591
24.700001	102.588	179.8194
25.000000	102.671	179.9084
25.400000	102.781	179.9984
25.799999	102.889	-179.9428
26.200001	102.997	-179.9290
26.500000	103.077	-179.9610
26.900000	103.181	179.9265
27.200001	103.255	179.7868
27.600000	103.349	179.5330
28.000000	103.436	179.2179
28.500000	103.535	178.7713
29.000000	103.623	178.3002
29.500000	103.706	177.8231
30.000000	103.788	177.3345
30.400000	103.853	176.9235
30.700001	103.901	176.5998
31.100000	103.962	176.1502
31.500000	104.019	175.6893
32.000000	104.085	175.1122
32.500000	104.144	174.5339
33.000000	104.197	173.9349
33.500000	104.241	173.2981
34.000000	104.274	172.6343
34.500000	104.299	171.9789
35.000000	104.321	171.3649
35.500000	104.345	170.7974
36.000000	104.373	170.2541
36.500000	104.402	169.7055
37.000000	104.427	169.1358
37.500000	104.445	168.5471
38.200001	104.460	167.7108
38.700001	104.468	167.1152
39.500000	104.480	166.1832
40.000000	104.484	165.6319
40.599998	104.485	165.0153
41.200001	104.483	164.4315
41.799999	104.484	163.8426
42.500000	104.485	163.1168
43.099998	104.482	162.4711
43.700001	104.472	161.8371
44.400002	104.450	161.1579
45.000000	104.423	160.6356
45.500000	104.399	160.2184
46.200001	104.368	159.6180
46.799999	104.346	159.0950
47.500000	104.332	158.5223
48.200001	104.337	157.9847
48.700001	104.345	157.5916
49.400002	104.345	157.0238
50.000000	104.324	156.5583
50.799999	104.277	156.0080
51.500000	104.234	155.5593
52.200001	104.198	155.0876
53.000000	104.163	154.4930
53.799999	104.131	153.8702
54.500000	104.109	153.3484
55.200001	104.097	152.8615
56.000000	104.091	152.3224
57.000000	104.080	151.6173
58.000000	104.059	150.8159
59.000000	104.031	149.9316
60.000000	104.001	149.0602
60.799999	103.978	148.3885
61.500000	103.956	147.7918
62.200001	103.930	147.1645
63.000000	103.894	146.4036
64.000000	103.840	145.4170
65.000000	103.777	144.4645
66.000000	103.711	143.6052
67.000000	103.647	142.8192
68.000000	103.580	142.0444
69.000000	103.505	141.2585
70.000000	103.421	140.4806
71.000000	103.334	139.7301
72.000000	103.251	139.0117
73.000000	103.173	138.3222
74.000000	103.093	137.6658
75.000000	103.010	137.0344
76.199997	102.904	136.2763
77.500000	102.776	135.4697
78.800003	102.644	134.7168
80.000000	102.533	134.0602
81.199997	102.432	133.4363
82.500000	102.321	132.7828
83.800003	102.203	132.1134
85.000000	102.091	131.4886
86.199997	101.980	130.9068
87.500000	101.860	130.3380
88.500000	101.768	129.9259
90.000000	101.631	129.3268
91.199997	101.521	128.8643
92.500000	101.401	128.3795
93.800003	101.279	127.9083
95.000000	101.166	127.4785
96.199997	101.052	127.0356
97.500000	100.926	126.5382
98.800003	100.798	126.0470
100.000000	100.677	125.6214
101.500000	100.527	125.1530
103.000000	100.385	124.7486
104.400002	100.260	124.3788
106.000000	100.119	123.9394
107.500000	99.983	123.5222
109.000000	99.841	123.0959
110.599998	99.693	122.6415
112.000000	99.568	122.2984
113.800003	99.405	121.9719
115.000000	99.290	121.7913
117.199997	99.072	121.4424
118.000000	98.993	121.3056
120.599998	98.738	120.8474
122.000000	98.604	120.6128
124.099998	98.407	120.3383
125.000000	98.324	120.2517
126.500000	98.188	120.1428
128.000000	98.053	120.0637
131.500000	97.731	119.8592
132.000000	97.686	119.8263
134.000000	97.515	119.7138
136.000000	97.352	119.6582
138.000000	97.185	119.6525
140.000000	97.011	119.6583
143.000000	96.735	119.6900
145.000000	96.543	119.7451
147.500000	96.303	119.8441
150.000000	96.074	119.9988
152.500000	95.864	120.2225
155.000000	95.665	120.5341
157.500000	95.465	120.8767
160.000000	95.270	121.2367
162.500000	95.091	121.6265
165.000000	94.923	122.0436
167.500000	94.754	122.5149
170.000000	94.579	123.0725
172.500000	94.408	123.6845
175.000000	94.240	124.3135
177.500000	94.069	124.9423
180.000000	93.894	125.5725
182.500000	93.719	126.2135
185.000000	93.541	126.8748
187.500000	93.361	127.5513
190.000000	93.186	128.2496
192.500000	93.025	128.9997
195.000000	92.879	129.8016
197.500000	92.749	130.6261
200.000000	92.636	131.4509
203.000000	92.529	132.4290
206.000000	92.454	133.4227
209.000000	92.392	134.4519
212.000000	92.328	135.4789
214.000000	92.284	136.1526
218.000000	92.189	137.5063
220.000000	92.139	138.1857
224.000000	92.040	139.5047
227.000000	91.975	140.4411
230.000000	91.919	141.3583
233.000000	91.864	142.2981
236.000000	91.811	143.2756
240.000000	91.754	144.6008
243.000000	91.721	145.6031
247.000000	91.687	146.9762
250.000000	91.667	148.0287
254.000000	91.652	149.4270
258.000000	91.666	150.8185
262.000000	91.722	152.1544
265.000000	91.787	153.0660
269.000000	91.886	154.1122
272.000000	91.958	154.7520
276.000000	92.041	155.4158
280.000000	92.110	155.9309
285.000000	92.183	156.4812
290.000000	92.244	157.0350
295.000000	92.299	157.6149
300.000000	92.350	158.1510
304.000000	92.388	158.5315
307.000000	92.414	158.7982
311.000000	92.446	159.1407
315.000000	92.478	159.4884
320.000000	92.522	159.9189
325.000000	92.567	160.2937
330.000000	92.608	160.6139
335.000000	92.650	160.9441
340.000000	92.697	161.3273
345.000000	92.747	161.7341
350.000000	92.793	162.1115
355.000000	92.833	162.4236
360.000000	92.868	162.6779
365.000000	92.902	162.9052
370.000000	92.940	163.1287
375.000000	92.983	163.3571
382.000000	93.043	163.7188
387.000000	93.087	163.9735
395.000000	93.158	164.2711
400.000000	93.203	164.3955
406.000000	93.256	164.5055
412.000000	93.310	164.6018
418.000000	93.364	164.7142
425.000000	93.425	164.8980
431.000000	93.470	165.0619
437.000000	93.503	165.1704
444.000000	93.528	165.2470
450.000000	93.549	165.3279
455.000000	93.570	165.4039
462.000000	93.602	165.4891
468.000000	93.632	165.5426
475.000000	93.672	165.6140
482.000000	93.716	165.7228
487.000000	93.745	165.8223
494.000000	93.779	165.9691
500.000000	93.804	166.0839
508.000000	93.842	166.2059
515.000000	93.882	166.2708
522.000000	93.923	166.3074
530.000000	93.964	166.3554
538.000000	93.998	166.4175
545.000000	94.028	166.4689
552.000000	94.061	166.5140
560.000000	94.104	166.5668
570.000000	94.158	166.6334
580.000000	94.210	166.6940
590.000000	94.253	166.7471
600.000000	94.285	166.8168
608.000000	94.310	166.8888
615.000000	94.335	166.9530
622.000000	94.364	167.0112
630.000000	94.403	167.0676
640.000000	94.456	167.1301
650.000000	94.505	167.2413
660.000000	94.546	167.4005
670.000000	94.584	167.5472
680.000000	94.631	167.6581
690.000000	94.687	167.7343
700.000000	94.748	167.8037
710.000000	94.807	167.8646
720.000000	94.856	167.9130
730.000000	94.897	167.9545
740.000000	94.938	168.0160
750.000000	94.983	168.1095
762.000000	95.043	168.2387
775.000000	95.116	168.3702
788.000000	95.195	168.4977
800.000000	95.274	168.6137
812.000000	95.357	168.6936
825.000000	95.447	168.7595
838.000000	95.534	168.8302
850.000000	95.615	168.9021
862.000000	95.702	168.9763
875.000000	95.803	169.0507
885.000000	95.883	169.1008
900.000000	96.003	169.1423
912.000000	96.101	169.1323
925.000000	96.205	169.0845
938.000000	96.306	169.0210
950.000000	96.401	168.9592
962.000000	96.499	168.8832
975.000000	96.611	168.7604
988.000000	96.725	168.5842
1000.000000	96.830	168.3806
1015.000000	96.960	168.1109
1030.000000	97.092	167.8297
1044.000000	97.215	167.5237
1060.000000	97.356	167.1091
1075.000000	97.484	166.6670
1090.000000	97.608	166.1742
1106.000000	97.736	165.6062
1120.000000	97.848	165.1034
1138.000000	97.992	164.4406
1150.000000	98.086	163.9822
1172.000000	98.247	163.1196
1180.000000	98.304	162.8056
1206.000000	98.490	161.8082
1220.000000	98.592	161.2802
1241.000000	98.752	160.4741
1250.000000	98.825	160.1216
1265.000000	98.953	159.5316
1280.000000	99.086	158.9441
1315.000000	99.373	157.6053
1320.000000	99.406	157.4185
1340.000000	99.511	156.6761
1360.000000	99.565	155.9359
1380.000000	99.584	155.2067
1400.000000	99.594	154.5082
1430.000000	99.635	153.4961
1450.000000	99.691	152.8238
1475.000000	99.791	151.9639
1500.000000	99.920	151.0839
1525.000000	100.068	150.1812
1550.000000	100.220	149.2851
1575.000000	100.370	148.4329
1600.000000	100.518	147.5901
1625.000000	100.664	146.7117
1650.000000	100.812	145.7626
1675.000000	100.961	144.7623
1700.000000	101.107	143.7570
1725.000000	101.252	142.7839
1750.000000	101.396	141.8352
1775.000000	101.537	140.8673
1800.000000	101.674	139.8708
1825.000000	101.806	138.8664
1850.000000	101.938	137.8377
1875.000000	102.070	136.7738
1900.000000	102.201	135.6774
1925.000000	102.332	134.5508
1950.000000	102.459	133.3973
1975.000000	102.581	132.2154
2000.000000	102.696	131.0115
2030.000000	102.833	129.5551
2060.000000	102.973	128.0803
2090.000000	103.113	126.5695
2120.000000	103.250	125.0056
2140.000000	103.339	123.9499
2180.000000	103.512	121.8650
2200.000000	103.594	120.8415
2240.000000	103.747	118.8067
2270.000000	103.857	117.2458
2300.000000	103.965	115.6257
2330.000000	104.070	113.9656
2360.000000	104.169	112.3069
2400.000000	104.288	110.1136
2430.000000	104.370	108.4559
2470.000000	104.473	106.2189
2500.000000	104.544	104.5303
2540.000000	104.626	102.2853
2580.000000	104.696	100.0475
2620.000000	104.755	97.8083
2650.000000	104.794	96.1438
2690.000000	104.839	93.9451
2720.000000	104.867	92.2981
2760.000000	104.895	90.1114
2800.000000	104.916	87.9539
2850.000000	104.932	85.3606
2900.000000	104.937	82.8706
2950.000000	104.926	80.4178
3000.000000	104.899	77.9978
3040.000000	104.870	76.0787
3070.000000	104.850	74.6584
3110.000000	104.825	72.8102
3150.000000	104.797	71.0324
3200.000000	104.753	68.9228
3250.000000	104.699	66.8864
3300.000000	104.641	64.8830
3350.000000	104.578	62.9286
3400.000000	104.510	61.0420
3450.000000	104.437	59.2383
3500.000000	104.362	57.5283
3550.000000	104.285	55.9005
3600.000000	104.207	54.3368
3650.000000	104.131	52.8341
3700.000000	104.064	51.4027
3750.000000	104.010	50.0454
3820.000000	103.958	48.2359
3870.000000	103.936	47.0026
3950.000000	103.921	45.1372
4000.000000	103.915	44.0214
4060.000000	103.905	42.7045
4120.000000	103.893	41.3994
4180.000000	103.881	40.1106
4250.000000	103.867	38.6345
4310.000000	103.862	37.3594
4370.000000	103.871	36.0382
4440.000000	103.907	34.3969
4500.000000	103.961	32.8817
4550.000000	104.021	31.5316
4620.000000	104.124	29.4877
4680.000000	104.219	27.5824
4750.000000	104.326	25.1777
4820.000000	104.414	22.5715
4870.000000	104.459	20.5829
4940.000000	104.491	17.6069
5000.000000	104.484	14.8776
5080.000000	104.411	11.0425
5150.000000	104.275	7.5964
5220.000000	104.064	4.1956
5300.000000	103.728	0.5217
5380.000000	103.290	-2.7618
5450.000000	102.834	-5.1753
5520.000000	102.332	-7.0346
5600.000000	101.730	-8.3886
5700.000000	100.984	-8.8879
5800.000000	100.308	-8.1464
5900.000000	99.760	-6.3924
6000.000000	99.373	-3.9227
6080.000000	99.183	-1.6505
6150.000000	99.098	0.4066
6220.000000	99.084	2.4350
6300.000000	99.144	4.6253
6400.000000	99.324	7.0473
6500.000000	99.608	9.0115
6600.000000	99.981	10.4303
6700.000000	100.432	11.2665
6800.000000	100.950	11.4716
6900.000000	101.522	10.9404
7000.000000	102.128	9.5520
7100.000000	102.744	7.2217
7200.000000	103.343	3.9364
7300.000000	103.887	-0.2815
7400.000000	104.343	-5.3345
7500.000000	104.682	-11.0853
7620.000000	104.878	-18.6230
7750.000000	104.741	-26.8945
7880.000000	104.206	-34.3541
8000.000000	103.409	-39.8573
8120.000000	102.415	-43.7391
8250.000000	101.237	-46.1366
8380.000000	100.071	-46.9032
8500.000000	99.083	-46.4765
8620.000000	98.217	-45.2587
8750.000000	97.420	-43.3260
8850.000000	96.895	-41.5314
9000.000000	96.222	-38.4867
9120.000000	95.764	-35.8418
9250.000000	95.336	-32.8355
9380.000000	94.969	-29.7244
9500.000000	94.687	-26.7981
9620.000000	94.464	-23.8395
9750.000000	94.285	-20.6173
9880.000000	94.163	-17.4011
10000.000000	94.092	-14.4426
10150.000000	94.058	-10.7798
10300.000000	94.075	-7.1981
10440.000000	94.130	-3.9515
10600.000000	94.234	-0.3709
10750.000000	94.367	2.8526
10900.000000	94.531	5.9631
11060.000000	94.732	9.1785
11200.000000	94.922	11.9577
11380.000000	95.182	15.6174
11500.000000	95.374	18.1895
11720.000000	95.806	23.3316
11800.000000	96.005	25.3637
12060.000000	96.882	32.5009
12200.000000	97.541	36.5012
12410.000000	98.837	42.1447
12500.000000	99.513	44.1950
12650.000000	100.782	46.7159
12800.000000	102.186	47.6318
13150.000000	105.424	40.7633
13200.000000	105.813	38.6442
13400.000000	107.003	27.7134
13600.000000	107.427	14.4122
13800.000000	107.044	1.4862
14000.000000	106.072	-8.7096
14300.000000	104.318	-17.5432
14500.000000	103.373	-20.4876
14750.000000	102.515	-23.2845
15000.000000	101.734	-26.2176
15250.000000	100.762	-28.6278
15500.000000	99.560	-29.3048
15750.000000	98.278	-27.8555
16000.000000	97.138	-24.6048
16250.000000	96.374	-20.4700
16500.000000	96.024	-16.6254
16750.000000	95.966	-13.7172
17000.000000	96.051	-12.2004
17250.000000	96.107	-12.3082
17500.000000	95.954	-13.6613
17750.000000	95.468	-14.4705
18000.000000	94.817	-10.7843
18250.000000	94.602	-0.4198
18500.000000	94.985	9.8335
18750.000000	95.484	15.5941
19000.000000	95.918	16.2722
19250.000000	96.320	13.6742
19500.000000	96.668	10.5427
19750.000000	96.876	7.8291
20000.000000	96.946	6.1760
