* Measurement data measured by REW V5.20.13
* Source: Microphone (2- USB Audio Device), MICROPHONE (Master Volume), L, volume: 0.250. Timing signal peak level -36.5 dBFS, measurement signal peak level -36.3 dBFS
* Format: 256k Log Swept Sine, 1 sweep at -12.0 dBFS using an acoustic timing reference
* Dated: 11-May-2023 16:43:25
* REW Settings:
*  C-weighting compensation: Off
*  Target level: 75.0 dB
* Note: 
* Measurement: CCA CRA
* Smoothing: 1/12 octave
* Frequency Step: 1/48 octave
* Start Frequency: 20.000 Hz
*
* Freq(Hz)	SPL(dB)	Phase(degrees)
20.000000	72.260	-105.6469
20.299999	72.538	-106.8747
20.600000	72.784	-107.8149
20.900000	72.995	-108.4926
21.200001	73.172	-108.9374
21.400000	73.274	-109.1307
21.799999	73.443	-109.3485
22.000000	73.513	-109.4232
22.400000	73.622	-109.6137
22.700001	73.676	-109.8585
23.000000	73.704	-110.2228
23.299999	73.708	-110.7056
23.600000	73.691	-111.3038
24.000000	73.648	-112.2870
24.299999	73.610	-113.1784
24.700001	73.559	-114.5868
25.000000	73.527	-115.7971
25.400000	73.500	-117.5702
25.799999	73.498	-119.4505
26.200001	73.529	-121.3663
26.500000	73.575	-122.7910
26.900000	73.664	-124.6321
27.200001	73.748	-125.9364
27.600000	73.875	-127.5346
28.000000	74.015	-128.9488
28.500000	74.193	-130.4697
29.000000	74.357	-131.7587
29.500000	74.489	-132.8425
30.000000	74.584	-133.7426
30.400000	74.634	-134.3646
30.700001	74.657	-134.7997
31.100000	74.672	-135.3732
31.500000	74.672	-135.9669
32.000000	74.654	-136.7714
32.500000	74.628	-137.6772
33.000000	74.600	-138.7090
33.500000	74.578	-139.8665
34.000000	74.567	-141.1241
34.500000	74.571	-142.4471
35.000000	74.589	-143.8018
35.500000	74.618	-145.1444
36.000000	74.655	-146.4267
36.500000	74.695	-147.6118
37.000000	74.736	-148.6825
37.500000	74.772	-149.6409
38.200001	74.811	-150.8234
38.700001	74.829	-151.5914
39.500000	74.837	-152.7835
40.000000	74.828	-153.5377
40.599998	74.807	-154.4528
41.200001	74.779	-155.3695
41.799999	74.754	-156.2897
42.500000	74.732	-157.3754
43.099998	74.721	-158.3134
43.700001	74.717	-159.2558
44.400002	74.716	-160.3664
45.000000	74.712	-161.3181
45.500000	74.702	-162.0854
46.200001	74.678	-163.0836
46.799999	74.655	-163.8652
47.500000	74.631	-164.7294
48.200001	74.614	-165.5884
48.700001	74.604	-166.2121
49.400002	74.589	-167.0962
50.000000	74.571	-167.8503
50.799999	74.535	-168.8245
51.500000	74.495	-169.6219
52.200001	74.454	-170.3507
53.000000	74.413	-171.1190
53.799999	74.380	-171.8763
54.500000	74.351	-172.5598
55.200001	74.319	-173.2583
56.000000	74.280	-174.0631
57.000000	74.231	-175.0699
58.000000	74.182	-176.0428
59.000000	74.135	-176.9271
60.000000	74.094	-177.7285
60.799999	74.062	-178.3474
61.500000	74.031	-178.8919
62.200001	73.994	-179.4476
63.000000	73.943	179.9043
64.000000	73.869	179.0971
65.000000	73.794	178.3170
66.000000	73.726	177.5594
67.000000	73.667	176.8241
68.000000	73.614	176.1262
69.000000	73.561	175.4635
70.000000	73.505	174.8289
71.000000	73.444	174.2299
72.000000	73.380	173.6650
73.000000	73.319	173.1172
74.000000	73.260	172.5698
75.000000	73.202	172.0247
76.199997	73.131	171.3963
77.500000	73.055	170.7573
78.800003	72.980	170.1561
80.000000	72.911	169.6235
81.199997	72.842	169.1103
82.500000	72.770	168.5708
83.800003	72.699	168.0335
85.000000	72.632	167.5428
86.199997	72.562	167.0755
87.500000	72.488	166.5970
88.500000	72.433	166.2345
90.000000	72.355	165.6984
91.199997	72.293	165.2913
92.500000	72.224	164.8766
93.800003	72.154	164.4737
95.000000	72.085	164.1067
96.199997	72.013	163.7595
97.500000	71.939	163.4123
98.800003	71.871	163.0791
100.000000	71.809	162.7722
101.500000	71.727	162.4083
103.000000	71.641	162.0845
104.400002	71.565	161.7877
106.000000	71.483	161.4101
107.500000	71.409	161.0460
109.000000	71.334	160.7417
110.599998	71.258	160.5080
112.000000	71.195	160.3385
113.800003	71.114	160.1077
115.000000	71.059	159.9381
117.199997	70.954	159.6062
118.000000	70.915	159.4847
120.599998	70.789	159.1221
122.000000	70.723	158.9491
124.099998	70.631	158.6809
125.000000	70.592	158.5536
126.500000	70.527	158.3323
128.000000	70.461	158.1222
131.500000	70.311	157.7565
132.000000	70.289	157.7175
134.000000	70.203	157.5878
136.000000	70.113	157.4910
138.000000	70.026	157.4085
140.000000	69.943	157.3145
143.000000	69.823	157.1387
145.000000	69.740	157.0257
147.500000	69.639	156.8960
150.000000	69.551	156.7568
152.500000	69.479	156.6365
155.000000	69.413	156.5917
157.500000	69.339	156.6123
160.000000	69.255	156.6371
162.500000	69.166	156.6438
165.000000	69.078	156.6518
167.500000	68.992	156.6643
170.000000	68.915	156.6501
172.500000	68.846	156.6101
175.000000	68.782	156.6064
177.500000	68.719	156.6501
180.000000	68.652	156.7000
182.500000	68.574	156.7396
185.000000	68.482	156.7858
187.500000	68.380	156.8551
190.000000	68.274	156.9320
192.500000	68.172	156.9951
195.000000	68.080	157.0557
197.500000	67.999	157.1544
200.000000	67.935	157.3172
203.000000	67.880	157.5505
206.000000	67.844	157.7354
209.000000	67.816	157.8532
212.000000	67.781	157.9511
214.000000	67.752	158.0261
218.000000	67.681	158.1887
220.000000	67.644	158.2546
224.000000	67.568	158.3594
227.000000	67.507	158.4693
230.000000	67.438	158.6404
233.000000	67.365	158.8686
236.000000	67.295	159.1169
240.000000	67.211	159.4149
243.000000	67.153	159.5945
247.000000	67.079	159.7902
250.000000	67.030	159.9321
254.000000	66.975	160.1320
258.000000	66.915	160.3534
262.000000	66.849	160.6037
265.000000	66.801	160.7755
269.000000	66.743	160.9569
272.000000	66.698	161.0944
276.000000	66.635	161.3367
280.000000	66.569	161.6219
285.000000	66.489	161.9546
290.000000	66.420	162.2627
295.000000	66.369	162.5997
300.000000	66.326	162.9843
304.000000	66.289	163.2740
307.000000	66.258	163.4686
311.000000	66.214	163.7317
315.000000	66.167	164.0205
320.000000	66.101	164.3905
325.000000	66.035	164.7590
330.000000	65.978	165.1512
335.000000	65.931	165.5062
340.000000	65.892	165.7809
345.000000	65.855	166.0661
350.000000	65.813	166.4201
355.000000	65.765	166.8036
360.000000	65.713	167.1930
365.000000	65.664	167.5997
370.000000	65.623	168.0169
375.000000	65.591	168.4184
382.000000	65.547	168.9316
387.000000	65.514	169.2755
395.000000	65.458	169.7961
400.000000	65.427	170.0894
406.000000	65.399	170.4316
412.000000	65.373	170.8198
418.000000	65.344	171.2530
425.000000	65.310	171.7241
431.000000	65.288	172.0714
437.000000	65.268	172.3961
444.000000	65.244	172.7985
450.000000	65.220	173.1881
455.000000	65.197	173.5555
462.000000	65.161	174.1365
468.000000	65.130	174.6658
475.000000	65.096	175.2564
482.000000	65.060	175.7561
487.000000	65.035	176.0460
494.000000	65.007	176.4110
500.000000	64.989	176.7386
508.000000	64.965	177.2087
515.000000	64.942	177.6220
522.000000	64.921	178.0246
530.000000	64.907	178.4816
538.000000	64.896	178.9519
545.000000	64.886	179.3814
552.000000	64.877	179.8178
560.000000	64.866	-179.6843
570.000000	64.839	-179.0358
580.000000	64.810	-178.3195
590.000000	64.796	-177.5312
600.000000	64.787	-176.7631
608.000000	64.781	-176.1942
615.000000	64.778	-175.7227
622.000000	64.774	-175.2676
630.000000	64.766	-174.7583
640.000000	64.755	-174.1365
650.000000	64.750	-173.5512
660.000000	64.758	-173.0125
670.000000	64.777	-172.4693
680.000000	64.791	-171.8530
690.000000	64.793	-171.1689
700.000000	64.794	-170.4603
710.000000	64.800	-169.7478
720.000000	64.809	-169.0383
730.000000	64.823	-168.3490
740.000000	64.837	-167.6695
750.000000	64.849	-166.9709
762.000000	64.861	-166.1547
775.000000	64.874	-165.3396
788.000000	64.898	-164.4915
800.000000	64.930	-163.6283
812.000000	64.967	-162.7207
825.000000	65.021	-161.7547
838.000000	65.095	-160.9022
850.000000	65.166	-160.2646
862.000000	65.232	-159.7083
875.000000	65.303	-159.0648
885.000000	65.361	-158.4978
900.000000	65.451	-157.5923
912.000000	65.525	-156.8998
925.000000	65.608	-156.2247
938.000000	65.694	-155.6155
950.000000	65.770	-155.0862
962.000000	65.843	-154.5967
975.000000	65.918	-154.1296
988.000000	65.995	-153.6891
1000.000000	66.071	-153.2694
1015.000000	66.170	-152.7441
1030.000000	66.271	-152.2330
1044.000000	66.372	-151.7755
1060.000000	66.491	-151.3011
1075.000000	66.603	-150.9024
1090.000000	66.712	-150.5395
1106.000000	66.824	-150.1904
1120.000000	66.919	-149.9117
1138.000000	67.043	-149.5937
1150.000000	67.127	-149.4071
1172.000000	67.282	-149.1332
1180.000000	67.340	-149.0602
1206.000000	67.531	-148.9016
1220.000000	67.635	-148.8353
1241.000000	67.789	-148.7311
1250.000000	67.855	-148.6826
1265.000000	67.970	-148.5982
1280.000000	68.090	-148.5112
1315.000000	68.354	-148.2658
1320.000000	68.384	-148.2322
1340.000000	68.478	-148.1201
1360.000000	68.525	-148.0454
1380.000000	68.537	-147.9773
1400.000000	68.540	-147.8972
1430.000000	68.561	-147.8272
1450.000000	68.599	-147.8363
1475.000000	68.675	-147.8401
1500.000000	68.771	-147.8036
1525.000000	68.878	-147.7614
1550.000000	68.994	-147.7137
1575.000000	69.113	-147.6547
1600.000000	69.225	-147.5714
1625.000000	69.335	-147.4865
1650.000000	69.450	-147.4302
1675.000000	69.566	-147.3957
1700.000000	69.678	-147.3740
1725.000000	69.783	-147.3646
1750.000000	69.881	-147.3557
1775.000000	69.976	-147.3521
1800.000000	70.070	-147.3745
1825.000000	70.165	-147.4257
1850.000000	70.257	-147.4752
1875.000000	70.343	-147.5019
1900.000000	70.424	-147.5301
1925.000000	70.504	-147.6032
1950.000000	70.585	-147.7136
1975.000000	70.669	-147.8215
2000.000000	70.754	-147.9236
2030.000000	70.850	-148.0537
2060.000000	70.940	-148.1746
2090.000000	71.028	-148.2862
2120.000000	71.115	-148.4256
2140.000000	71.172	-148.5455
2180.000000	71.280	-148.8288
2200.000000	71.331	-148.9737
2240.000000	71.434	-149.2576
2270.000000	71.510	-149.4761
2300.000000	71.583	-149.7004
2330.000000	71.653	-149.9200
2360.000000	71.721	-150.1251
2400.000000	71.813	-150.3888
2430.000000	71.879	-150.5957
2470.000000	71.960	-150.8800
2500.000000	72.016	-151.0872
2540.000000	72.084	-151.3545
2580.000000	72.146	-151.6014
2620.000000	72.204	-151.8100
2650.000000	72.248	-151.9528
2690.000000	72.304	-152.1620
2720.000000	72.344	-152.3441
2760.000000	72.393	-152.5948
2800.000000	72.439	-152.8072
2850.000000	72.495	-153.0162
2900.000000	72.549	-153.2073
2950.000000	72.604	-153.3813
3000.000000	72.659	-153.5219
3040.000000	72.701	-153.6062
3070.000000	72.733	-153.6529
3110.000000	72.778	-153.6963
3150.000000	72.828	-153.7205
3200.000000	72.895	-153.7361
3250.000000	72.963	-153.7624
3300.000000	73.032	-153.8056
3350.000000	73.099	-153.8478
3400.000000	73.163	-153.8716
3450.000000	73.227	-153.8802
3500.000000	73.292	-153.8876
3550.000000	73.359	-153.9099
3600.000000	73.435	-153.9630
3650.000000	73.522	-154.0434
3700.000000	73.625	-154.1359
3750.000000	73.743	-154.2371
3820.000000	73.928	-154.4222
3870.000000	74.069	-154.6113
3950.000000	74.302	-155.0551
4000.000000	74.448	-155.4081
4060.000000	74.616	-155.9194
4120.000000	74.773	-156.5527
4180.000000	74.915	-157.3097
4250.000000	75.063	-158.3504
4310.000000	75.180	-159.3917
4370.000000	75.290	-160.5863
4440.000000	75.413	-162.1827
4500.000000	75.515	-163.7377
4550.000000	75.596	-165.1686
4620.000000	75.695	-167.3533
4680.000000	75.754	-169.3563
4750.000000	75.784	-171.7980
4820.000000	75.765	-174.3109
4870.000000	75.717	-176.1186
4940.000000	75.600	-178.6115
5000.000000	75.454	179.3270
5080.000000	75.200	176.7389
5150.000000	74.930	174.6878
5220.000000	74.622	172.8904
5300.000000	74.227	171.1645
5380.000000	73.795	169.7924
5450.000000	73.396	168.9002
5520.000000	72.987	168.3111
5600.000000	72.525	168.0024
5700.000000	71.966	168.1275
5800.000000	71.447	168.7727
5900.000000	70.988	169.8346
6000.000000	70.591	171.1100
6080.000000	70.300	172.2220
6150.000000	70.058	173.3029
6220.000000	69.827	174.5011
6300.000000	69.580	175.9889
6400.000000	69.306	177.9926
6500.000000	69.080	-179.8558
6600.000000	68.903	-177.5818
6700.000000	68.783	-175.2277
6800.000000	68.720	-172.8351
6900.000000	68.716	-170.4043
7000.000000	68.774	-167.9404
7100.000000	68.902	-165.5104
7200.000000	69.110	-163.2262
7300.000000	69.404	-161.1350
7400.000000	69.787	-159.2218
7500.000000	70.263	-157.5262
7620.000000	70.952	-155.9250
7750.000000	71.812	-154.9264
7880.000000	72.730	-154.9722
8000.000000	73.578	-156.3280
8120.000000	74.377	-159.3906
8250.000000	75.122	-165.0495
8380.000000	75.642	-173.2564
8500.000000	75.822	177.4020
8620.000000	75.649	167.4553
8750.000000	75.056	157.5006
8850.000000	74.354	151.2104
9000.000000	73.025	144.5469
9120.000000	71.840	141.4819
9250.000000	70.537	140.0254
9380.000000	69.284	140.0684
9500.000000	68.213	141.0961
9620.000000	67.251	142.8007
9750.000000	66.342	145.1631
9880.000000	65.558	147.8606
10000.000000	64.929	150.5240
10150.000000	64.254	153.9838
10300.000000	63.681	157.5331
10440.000000	63.227	160.9113
10600.000000	62.803	164.8254
10750.000000	62.497	168.4731
10900.000000	62.273	172.0296
11060.000000	62.117	175.6358
11200.000000	62.049	178.5553
11380.000000	62.042	-178.0897
11500.000000	62.083	-176.1246
11720.000000	62.255	-173.0856
11800.000000	62.346	-172.1882
12060.000000	62.699	-170.2753
12200.000000	62.887	-169.9365
12410.000000	63.111	-170.2815
12500.000000	63.172	-170.7094
12650.000000	63.210	-171.7182
12800.000000	63.155	-172.9755
13150.000000	62.566	-175.9412
13200.000000	62.429	-176.2659
13400.000000	61.791	-177.0903
13600.000000	61.094	-177.0607
13800.000000	60.459	-176.2072
14000.000000	59.955	-174.7111
14300.000000	59.479	-171.7822
14500.000000	59.353	-169.6688
14750.000000	59.407	-167.2198
15000.000000	59.667	-165.6350
15250.000000	60.057	-165.9450
15500.000000	60.415	-169.4548
15750.000000	60.489	-176.8249
16000.000000	59.953	173.9118
16250.000000	58.690	166.1199
16500.000000	57.324	151.4495
16750.000000	56.545	100.3022
17000.000000	55.892	-18.6087
17250.000000	54.968	152.3694
17500.000000	54.105	-79.3728
17750.000000	53.877	30.5052
18000.000000	54.387	132.2603
18250.000000	55.209	-131.2499
18500.000000	55.919	-38.4343
18750.000000	56.324	53.0300
19000.000000	56.433	146.6733
19250.000000	56.335	-111.3508
19500.000000	56.105	11.6462
19750.000000	55.810	179.7529
