* Measurement data measured by REW V5.20.13
* Source: Microphone (2- USB Audio Device), MICROPHONE (Master Volume), L, volume: 0.250. Timing signal peak level -37.9 dBFS, measurement signal peak level -37.3 dBFS
* Format: 256k Log Swept Sine, 1 sweep at -12.0 dBFS using an acoustic timing reference
* Dated: 14-May-2023 10:45:27
* REW Settings:
*  C-weighting compensation: Off
*  Target level: 75.0 dB
* Note: 
* Measurement: CCZ Emerald L
* Smoothing: 1/12 octave
* Frequency Step: 1/48 octave
* Start Frequency: 20.000 Hz
*
* Freq(Hz)	SPL(dB)	Phase(degrees)
20.000000	64.850	-69.4942
20.299999	65.415	-72.2128
20.600000	65.966	-74.2168
20.900000	66.478	-75.5811
21.200001	66.939	-76.3809
21.400000	67.219	-76.6571
21.799999	67.713	-76.7432
22.000000	67.925	-76.6401
22.400000	68.276	-76.3106
22.700001	68.469	-76.0281
23.000000	68.600	-75.7330
23.299999	68.679	-75.4213
23.600000	68.718	-75.1224
24.000000	68.727	-74.8522
24.299999	68.712	-74.8677
24.700001	68.669	-75.3125
25.000000	68.621	-76.0004
25.400000	68.542	-77.3591
25.799999	68.464	-79.1383
26.200001	68.413	-81.2546
26.500000	68.403	-83.0124
26.900000	68.434	-85.4966
27.200001	68.491	-87.3757
27.600000	68.614	-89.7730
28.000000	68.788	-91.9293
28.500000	69.067	-94.2185
29.000000	69.382	-96.1002
29.500000	69.690	-97.6366
30.000000	69.957	-98.8453
30.400000	70.130	-99.5791
30.700001	70.237	-100.0075
31.100000	70.352	-100.4636
31.500000	70.439	-100.8574
32.000000	70.513	-101.3795
32.500000	70.551	-102.0287
33.000000	70.557	-102.8364
33.500000	70.547	-103.7954
34.000000	70.539	-104.9094
34.500000	70.548	-106.1922
35.000000	70.578	-107.6293
35.500000	70.629	-109.1569
36.000000	70.698	-110.6886
36.500000	70.785	-112.1483
37.000000	70.884	-113.4767
37.500000	70.991	-114.6456
38.200001	71.145	-116.0492
38.700001	71.250	-116.9574
39.500000	71.382	-118.3632
40.000000	71.436	-119.2147
40.599998	71.475	-120.2048
41.200001	71.499	-121.2051
41.799999	71.512	-122.2625
42.500000	71.513	-123.5300
43.099998	71.512	-124.5469
43.700001	71.530	-125.4747
44.400002	71.588	-126.5509
45.000000	71.657	-127.5580
45.500000	71.714	-128.4449
46.200001	71.783	-129.6712
46.799999	71.833	-130.6532
47.500000	71.888	-131.7207
48.200001	71.941	-132.7332
48.700001	71.978	-133.4350
49.400002	72.027	-134.3979
50.000000	72.062	-135.2087
50.799999	72.099	-136.2665
51.500000	72.125	-137.1640
52.200001	72.150	-138.0342
53.000000	72.182	-139.0139
53.799999	72.211	-140.0029
54.500000	72.230	-140.8722
55.200001	72.243	-141.7279
56.000000	72.254	-142.6866
57.000000	72.269	-143.8782
58.000000	72.285	-145.0486
59.000000	72.304	-146.1419
60.000000	72.332	-147.1553
60.799999	72.354	-147.9456
61.500000	72.369	-148.6320
62.200001	72.376	-149.3077
63.000000	72.377	-150.0676
64.000000	72.374	-151.0266
65.000000	72.371	-152.0364
66.000000	72.368	-153.0922
67.000000	72.365	-154.1292
68.000000	72.365	-155.0944
69.000000	72.368	-155.9818
70.000000	72.369	-156.8000
71.000000	72.370	-157.5694
72.000000	72.369	-158.3257
73.000000	72.366	-159.0922
74.000000	72.361	-159.8720
75.000000	72.354	-160.6540
76.199997	72.344	-161.5693
77.500000	72.333	-162.5171
78.800003	72.321	-163.4280
80.000000	72.307	-164.2413
81.199997	72.292	-165.0364
82.500000	72.278	-165.8884
83.800003	72.268	-166.7467
85.000000	72.258	-167.5422
86.199997	72.243	-168.3124
87.500000	72.224	-169.1102
88.500000	72.207	-169.7049
90.000000	72.177	-170.5555
91.199997	72.153	-171.2114
92.500000	72.125	-171.9258
93.800003	72.093	-172.6436
95.000000	72.064	-173.3129
96.199997	72.036	-174.0060
97.500000	72.005	-174.7614
98.800003	71.972	-175.4598
100.000000	71.944	-176.0299
101.500000	71.915	-176.6746
103.000000	71.888	-177.3091
104.400002	71.860	-177.9342
106.000000	71.821	-178.6687
107.500000	71.782	-179.3357
109.000000	71.743	-179.9633
110.599998	71.700	179.4125
112.000000	71.662	178.8841
113.800003	71.613	178.2032
115.000000	71.580	177.7509
117.199997	71.524	176.9448
118.000000	71.506	176.6536
120.599998	71.442	175.6591
122.000000	71.399	175.1231
124.099998	71.333	174.3878
125.000000	71.309	174.0925
126.500000	71.273	173.5997
128.000000	71.240	173.0988
131.500000	71.156	172.0144
132.000000	71.143	171.8732
134.000000	71.094	171.3237
136.000000	71.041	170.7769
138.000000	70.982	170.2435
140.000000	70.920	169.7419
143.000000	70.831	169.0198
145.000000	70.774	168.5146
147.500000	70.701	167.8300
150.000000	70.622	167.1690
152.500000	70.543	166.6541
155.000000	70.468	166.2516
157.500000	70.391	165.8599
160.000000	70.317	165.4327
162.500000	70.254	164.9920
165.000000	70.200	164.5670
167.500000	70.148	164.1484
170.000000	70.096	163.7207
172.500000	70.043	163.2900
175.000000	69.988	162.8663
177.500000	69.928	162.4623
180.000000	69.856	162.0869
182.500000	69.770	161.7153
185.000000	69.665	161.3240
187.500000	69.552	160.9272
190.000000	69.446	160.5498
192.500000	69.352	160.1985
195.000000	69.270	159.8765
197.500000	69.199	159.5944
200.000000	69.139	159.3415
203.000000	69.078	159.0330
206.000000	69.025	158.7044
209.000000	68.977	158.3828
212.000000	68.932	158.0777
214.000000	68.901	157.8809
218.000000	68.828	157.5415
220.000000	68.784	157.4103
224.000000	68.683	157.1586
227.000000	68.602	156.9227
230.000000	68.527	156.6575
233.000000	68.456	156.3937
236.000000	68.386	156.1453
240.000000	68.285	155.8610
243.000000	68.205	155.6886
247.000000	68.100	155.4786
250.000000	68.022	155.3173
254.000000	67.917	155.0892
258.000000	67.815	154.8585
262.000000	67.716	154.6673
265.000000	67.641	154.5720
269.000000	67.540	154.4888
272.000000	67.468	154.4217
276.000000	67.380	154.3038
280.000000	67.300	154.1835
285.000000	67.202	154.0587
290.000000	67.099	153.9761
295.000000	66.994	153.9601
300.000000	66.884	153.9436
304.000000	66.795	153.8804
307.000000	66.731	153.8190
311.000000	66.646	153.7493
315.000000	66.563	153.7172
320.000000	66.456	153.7457
325.000000	66.350	153.8407
330.000000	66.243	153.9959
335.000000	66.137	154.1759
340.000000	66.041	154.3229
345.000000	65.950	154.4780
350.000000	65.860	154.6990
355.000000	65.766	154.9469
360.000000	65.673	155.1801
365.000000	65.589	155.3846
370.000000	65.520	155.5526
375.000000	65.469	155.6867
382.000000	65.400	155.8520
387.000000	65.338	155.9460
395.000000	65.220	156.0176
400.000000	65.141	156.0449
406.000000	65.047	156.0717
412.000000	64.959	156.1012
418.000000	64.874	156.1588
425.000000	64.773	156.3074
431.000000	64.682	156.5107
437.000000	64.586	156.7417
444.000000	64.470	157.0215
450.000000	64.375	157.2749
455.000000	64.302	157.4977
462.000000	64.213	157.8030
468.000000	64.139	158.0391
475.000000	64.037	158.3087
482.000000	63.926	158.6259
487.000000	63.852	158.9059
494.000000	63.764	159.3860
500.000000	63.697	159.8613
508.000000	63.605	160.4493
515.000000	63.518	160.8283
522.000000	63.426	161.1527
530.000000	63.314	161.5966
538.000000	63.205	162.1250
545.000000	63.120	162.6138
552.000000	63.044	163.0988
560.000000	62.963	163.6381
570.000000	62.864	164.3269
580.000000	62.763	165.0599
590.000000	62.651	165.8482
600.000000	62.531	166.6056
608.000000	62.446	167.1902
615.000000	62.380	167.7562
622.000000	62.320	168.4037
630.000000	62.253	169.1810
640.000000	62.161	170.0869
650.000000	62.062	170.9125
660.000000	61.966	171.7287
670.000000	61.884	172.6229
680.000000	61.823	173.6161
690.000000	61.772	174.6241
700.000000	61.715	175.6107
710.000000	61.651	176.6216
720.000000	61.594	177.6501
730.000000	61.548	178.6492
740.000000	61.513	179.6606
750.000000	61.488	-179.2484
762.000000	61.465	-177.8667
775.000000	61.451	-176.3472
788.000000	61.449	-174.7957
800.000000	61.444	-173.3429
812.000000	61.442	-171.8752
825.000000	61.467	-170.2498
838.000000	61.522	-168.6575
850.000000	61.583	-167.2979
862.000000	61.644	-166.0545
875.000000	61.716	-164.7886
885.000000	61.784	-163.8458
900.000000	61.903	-162.4559
912.000000	62.004	-161.3673
925.000000	62.118	-160.2678
938.000000	62.240	-159.2908
950.000000	62.358	-158.4818
962.000000	62.474	-157.7348
975.000000	62.598	-156.9919
988.000000	62.732	-156.3226
1000.000000	62.864	-155.7404
1015.000000	63.024	-155.0234
1030.000000	63.166	-154.3842
1044.000000	63.288	-153.9384
1060.000000	63.431	-153.5525
1075.000000	63.569	-153.2288
1090.000000	63.697	-152.9555
1106.000000	63.816	-152.7348
1120.000000	63.914	-152.5798
1138.000000	64.036	-152.3947
1150.000000	64.109	-152.2653
1172.000000	64.229	-152.0248
1180.000000	64.271	-151.9492
1206.000000	64.418	-151.7829
1220.000000	64.504	-151.6976
1241.000000	64.627	-151.4728
1250.000000	64.679	-151.3288
1265.000000	64.770	-151.0375
1280.000000	64.870	-150.7161
1315.000000	65.102	-150.0165
1320.000000	65.129	-149.9241
1340.000000	65.203	-149.5439
1360.000000	65.225	-149.1354
1380.000000	65.213	-148.7341
1400.000000	65.194	-148.3242
1430.000000	65.199	-147.6313
1450.000000	65.234	-147.1497
1475.000000	65.312	-146.5453
1500.000000	65.417	-145.9514
1525.000000	65.537	-145.3564
1550.000000	65.673	-144.7716
1575.000000	65.819	-144.2160
1600.000000	65.960	-143.6812
1625.000000	66.101	-143.1813
1650.000000	66.244	-142.7009
1675.000000	66.387	-142.2210
1700.000000	66.534	-141.7431
1725.000000	66.685	-141.2587
1750.000000	66.839	-140.7811
1775.000000	66.996	-140.3292
1800.000000	67.155	-139.9120
1825.000000	67.315	-139.5279
1850.000000	67.479	-139.1705
1875.000000	67.650	-138.8339
1900.000000	67.825	-138.5057
1925.000000	68.004	-138.1939
1950.000000	68.184	-137.9279
1975.000000	68.364	-137.7220
2000.000000	68.545	-137.5709
2030.000000	68.767	-137.4556
2060.000000	68.996	-137.3925
2090.000000	69.229	-137.3692
2120.000000	69.460	-137.4170
2140.000000	69.611	-137.5117
2180.000000	69.910	-137.8610
2200.000000	70.062	-138.0992
2240.000000	70.370	-138.6808
2270.000000	70.601	-139.2125
2300.000000	70.828	-139.8265
2330.000000	71.047	-140.5222
2360.000000	71.258	-141.3022
2400.000000	71.528	-142.4777
2430.000000	71.722	-143.4498
2470.000000	71.964	-144.8469
2500.000000	72.127	-145.9566
2540.000000	72.318	-147.5135
2580.000000	72.480	-149.1703
2620.000000	72.617	-150.9199
2650.000000	72.704	-152.2629
2690.000000	72.793	-154.0580
2720.000000	72.839	-155.3966
2760.000000	72.875	-157.1581
2800.000000	72.890	-158.8632
2850.000000	72.884	-160.8647
2900.000000	72.847	-162.7272
2950.000000	72.780	-164.4399
3000.000000	72.691	-165.9425
3040.000000	72.608	-167.0032
3070.000000	72.540	-167.7301
3110.000000	72.446	-168.6081
3150.000000	72.348	-169.3688
3200.000000	72.225	-170.1445
3250.000000	72.107	-170.7416
3300.000000	71.991	-171.1888
3350.000000	71.875	-171.5093
3400.000000	71.762	-171.7105
3450.000000	71.655	-171.7903
3500.000000	71.557	-171.7603
3550.000000	71.470	-171.6552
3600.000000	71.400	-171.4910
3650.000000	71.348	-171.2815
3700.000000	71.318	-171.0412
3750.000000	71.312	-170.7728
3820.000000	71.345	-170.3575
3870.000000	71.395	-170.0410
3950.000000	71.518	-169.4797
4000.000000	71.614	-169.1384
4060.000000	71.740	-168.8192
4120.000000	71.875	-168.6254
4180.000000	72.018	-168.5558
4250.000000	72.204	-168.6624
4310.000000	72.386	-168.9609
4370.000000	72.597	-169.5067
4440.000000	72.881	-170.5541
4500.000000	73.149	-171.8922
4550.000000	73.381	-173.3722
4620.000000	73.692	-176.0757
4680.000000	73.913	-179.0177
4750.000000	74.073	176.8730
4820.000000	74.070	172.3084
4870.000000	73.946	169.0875
4940.000000	73.602	165.2475
5000.000000	73.195	163.0842
5080.000000	72.663	162.1002
5150.000000	72.404	162.3282
5220.000000	72.415	162.1932
5300.000000	72.601	160.1459
5380.000000	72.686	155.8309
5450.000000	72.535	151.0144
5520.000000	72.152	146.2311
5600.000000	71.479	141.7415
5700.000000	70.422	138.2928
5800.000000	69.341	136.8927
5900.000000	68.378	136.4586
6000.000000	67.489	136.5444
6080.000000	66.797	137.0864
6150.000000	66.209	137.9396
6220.000000	65.641	139.0957
6300.000000	65.020	140.6940
6400.000000	64.300	142.9991
6500.000000	63.653	145.6046
6600.000000	63.061	148.4813
6700.000000	62.521	151.5502
6800.000000	62.045	154.7310
6900.000000	61.636	158.0317
7000.000000	61.291	161.4537
7100.000000	61.003	164.9506
7200.000000	60.777	168.4476
7300.000000	60.624	171.9566
7400.000000	60.544	175.5343
7500.000000	60.533	179.1818
7620.000000	60.605	-176.4684
7750.000000	60.769	-171.8577
7880.000000	60.973	-167.3136
8000.000000	61.160	-163.2319
8120.000000	61.357	-159.2585
8250.000000	61.627	-155.0392
8380.000000	62.029	-151.0109
8500.000000	62.571	-147.6003
8620.000000	63.313	-144.6127
8750.000000	64.358	-142.0921
8850.000000	65.317	-140.9688
9000.000000	66.937	-141.4948
9120.000000	68.267	-144.7232
9250.000000	69.543	-151.9967
9380.000000	70.413	-163.5020
9500.000000	70.685	-176.7756
9620.000000	70.379	169.7063
9750.000000	69.447	157.4811
9880.000000	68.055	149.2944
10000.000000	66.545	145.3160
10150.000000	64.601	144.0889
10300.000000	62.799	145.5518
10440.000000	61.344	148.3259
10600.000000	59.969	152.4851
10750.000000	58.935	156.9709
10900.000000	58.101	161.8216
11060.000000	57.390	167.1517
11200.000000	56.893	171.7128
11380.000000	56.401	177.3532
11500.000000	56.172	-178.9068
11720.000000	55.992	-171.8494
11800.000000	56.003	-169.2396
12060.000000	56.291	-161.0347
12200.000000	56.618	-156.9929
12410.000000	57.414	-151.6475
12500.000000	57.880	-149.7257
12650.000000	58.812	-147.3015
12800.000000	59.887	-146.3285
13150.000000	62.317	-154.0234
13200.000000	62.572	-156.6479
13400.000000	63.141	-170.8205
13600.000000	62.819	172.0269
13800.000000	61.588	157.1612
14000.000000	59.667	147.7180
14300.000000	56.207	140.2663
14500.000000	53.962	130.3910
14750.000000	51.587	87.3494
15000.000000	49.789	-27.6543
15250.000000	48.437	135.5398
15500.000000	47.350	-115.3354
15750.000000	46.440	-53.0283
16000.000000	45.763	-69.2666
16250.000000	45.428	162.8076
16500.000000	45.442	-58.6704
16750.000000	45.710	16.1506
17000.000000	46.212	89.7549
17250.000000	47.036	-64.2292
17500.000000	48.144	-31.3774
17750.000000	49.348	124.4844
18000.000000	50.439	-16.1289
18250.000000	51.205	-127.2959
18500.000000	51.494	78.6992
18750.000000	51.284	90.9502
19000.000000	50.689	2.9233
19250.000000	49.874	-175.4668
19500.000000	48.990	74.7822
19750.000000	48.157	117.4229
