* Measurement data measured by REW V5.20.13
* Source: Microphone (2- USB Audio Device), MICROPHONE (Master Volume), L, volume: 0.250. Timing signal peak level -40.8 dBFS, measurement signal peak level -38.5 dBFS
* Format: 256k Log Swept Sine, 1 sweep at -12.0 dBFS using an acoustic timing reference
* Dated: 14-May-2023 10:46:02
* REW Settings:
*  C-weighting compensation: Off
*  Target level: 75.0 dB
* Note: 
* Measurement: CCZ Emerald R
* Smoothing: 1/12 octave
* Frequency Step: 1/48 octave
* Start Frequency: 20.000 Hz
*
* Freq(Hz)	SPL(dB)	Phase(degrees)
20.000000	66.306	122.4046
20.299999	66.298	122.1370
20.600000	66.279	121.6768
20.900000	66.262	120.9514
21.200001	66.254	119.8740
21.400000	66.253	118.9359
21.799999	66.258	116.5845
22.000000	66.263	115.2268
22.400000	66.285	112.3234
22.700001	66.325	110.1315
23.000000	66.400	108.0370
23.299999	66.520	106.0789
23.600000	66.684	104.2632
24.000000	66.963	102.0506
24.299999	67.201	100.5293
24.700001	67.533	98.6696
25.000000	67.776	97.4003
25.400000	68.073	95.8895
25.799999	68.328	94.6196
26.200001	68.536	93.6198
26.500000	68.666	93.0403
26.900000	68.814	92.4440
27.200001	68.910	92.0647
27.600000	69.020	91.5534
28.000000	69.110	90.9426
28.500000	69.188	89.9650
29.000000	69.231	88.7514
29.500000	69.250	87.3554
30.000000	69.263	85.8473
30.400000	69.283	84.5968
30.700001	69.310	83.6428
31.100000	69.365	82.3535
31.500000	69.442	81.0490
32.000000	69.564	79.4190
32.500000	69.704	77.8367
33.000000	69.849	76.3619
33.500000	69.990	75.0400
34.000000	70.123	73.8948
34.500000	70.247	72.9100
35.000000	70.362	72.0270
35.500000	70.464	71.1660
36.000000	70.548	70.2791
36.500000	70.611	69.3663
37.000000	70.658	68.4406
37.500000	70.698	67.4906
38.200001	70.749	66.0663
38.700001	70.782	64.9829
39.500000	70.834	63.2537
40.000000	70.875	62.2252
40.599998	70.941	61.0389
41.200001	71.021	59.8854
41.799999	71.108	58.7679
42.500000	71.213	57.5007
43.099998	71.298	56.4042
43.700001	71.367	55.2821
44.400002	71.420	53.9927
45.000000	71.447	52.9589
45.500000	71.464	52.1535
46.200001	71.486	51.0861
46.799999	71.507	50.2053
47.500000	71.541	49.1942
48.200001	71.584	48.1725
48.700001	71.617	47.4296
49.400002	71.660	46.3849
50.000000	71.687	45.5056
50.799999	71.709	44.3786
51.500000	71.720	43.4420
52.200001	71.734	42.5386
53.000000	71.758	41.5006
53.799999	71.786	40.4270
54.500000	71.806	39.4934
55.200001	71.823	38.6108
56.000000	71.844	37.6741
57.000000	71.871	36.5798
58.000000	71.899	35.5242
59.000000	71.926	34.4377
60.000000	71.945	33.2968
60.799999	71.955	32.3563
61.500000	71.960	31.5262
62.200001	71.963	30.7113
63.000000	71.965	29.8219
64.000000	71.966	28.7935
65.000000	71.966	27.8861
66.000000	71.971	27.0995
67.000000	71.983	26.3545
68.000000	71.997	25.5651
69.000000	72.005	24.7014
70.000000	72.004	23.7828
71.000000	71.999	22.8427
72.000000	71.991	21.8986
73.000000	71.978	20.9723
74.000000	71.960	20.1011
75.000000	71.938	19.3157
76.199997	71.917	18.4765
77.500000	71.906	17.6168
78.800003	71.901	16.7338
80.000000	71.894	15.9198
81.199997	71.887	15.1367
82.500000	71.882	14.2651
83.800003	71.871	13.3365
85.000000	71.850	12.4918
86.199997	71.823	11.7116
87.500000	71.794	10.9475
88.500000	71.773	10.4059
90.000000	71.747	9.6189
91.199997	71.729	8.9658
92.500000	71.708	8.2065
93.800003	71.680	7.4149
95.000000	71.647	6.7199
96.199997	71.612	6.1025
97.500000	71.577	5.5110
98.800003	71.545	4.9524
100.000000	71.515	4.4388
101.500000	71.476	3.7997
103.000000	71.437	3.1528
104.400002	71.403	2.5262
106.000000	71.365	1.7888
107.500000	71.329	1.0934
109.000000	71.294	0.4096
110.599998	71.256	-0.3055
112.000000	71.222	-0.9179
113.800003	71.174	-1.6459
115.000000	71.144	-2.0850
117.199997	71.094	-2.8499
118.000000	71.076	-3.1260
120.599998	71.013	-4.0217
122.000000	70.974	-4.5135
124.099998	70.914	-5.2605
125.000000	70.889	-5.5735
126.500000	70.850	-6.0773
128.000000	70.812	-6.5555
131.500000	70.719	-7.5988
132.000000	70.705	-7.7469
134.000000	70.648	-8.3467
136.000000	70.591	-8.9454
138.000000	70.537	-9.5154
140.000000	70.482	-10.0327
143.000000	70.391	-10.6998
145.000000	70.323	-11.1025
147.500000	70.234	-11.6289
150.000000	70.152	-12.2011
152.500000	70.087	-12.8045
155.000000	70.030	-13.3746
157.500000	69.968	-13.8630
160.000000	69.900	-14.3054
162.500000	69.832	-14.7441
165.000000	69.767	-15.2053
167.500000	69.697	-15.6605
170.000000	69.625	-16.0721
172.500000	69.561	-16.4777
175.000000	69.504	-16.9136
177.500000	69.442	-17.3207
180.000000	69.371	-17.6517
182.500000	69.287	-17.9392
185.000000	69.190	-18.2339
187.500000	69.082	-18.5658
190.000000	68.973	-18.9348
192.500000	68.872	-19.3112
195.000000	68.786	-19.6545
197.500000	68.712	-19.9343
200.000000	68.648	-20.1680
203.000000	68.588	-20.4567
206.000000	68.541	-20.7769
209.000000	68.499	-21.0730
212.000000	68.455	-21.3066
214.000000	68.422	-21.4324
218.000000	68.341	-21.6636
220.000000	68.294	-21.8027
224.000000	68.195	-22.1443
227.000000	68.117	-22.3801
230.000000	68.035	-22.5636
233.000000	67.955	-22.7374
236.000000	67.878	-22.9311
240.000000	67.779	-23.2092
243.000000	67.705	-23.4012
247.000000	67.609	-23.6024
250.000000	67.537	-23.7334
254.000000	67.446	-23.9039
258.000000	67.357	-24.0207
262.000000	67.267	-24.0955
265.000000	67.198	-24.1636
269.000000	67.102	-24.2894
272.000000	67.027	-24.4038
276.000000	66.929	-24.5596
280.000000	66.840	-24.6860
285.000000	66.734	-24.7744
290.000000	66.622	-24.7303
295.000000	66.516	-24.6340
300.000000	66.417	-24.5973
304.000000	66.335	-24.6223
307.000000	66.272	-24.6483
311.000000	66.188	-24.6606
315.000000	66.107	-24.6583
320.000000	66.016	-24.6795
325.000000	65.926	-24.7306
330.000000	65.826	-24.7618
335.000000	65.727	-24.7142
340.000000	65.641	-24.5801
345.000000	65.561	-24.4438
350.000000	65.471	-24.3699
355.000000	65.371	-24.3142
360.000000	65.272	-24.2095
365.000000	65.186	-24.0454
370.000000	65.108	-23.8807
375.000000	65.028	-23.7422
382.000000	64.901	-23.5083
387.000000	64.807	-23.2650
395.000000	64.665	-22.8353
400.000000	64.585	-22.6216
406.000000	64.502	-22.4543
412.000000	64.423	-22.3236
418.000000	64.336	-22.1746
425.000000	64.227	-21.9840
431.000000	64.133	-21.7855
437.000000	64.042	-21.5258
444.000000	63.939	-21.1565
450.000000	63.853	-20.8569
455.000000	63.788	-20.6420
462.000000	63.701	-20.3265
468.000000	63.622	-20.0132
475.000000	63.524	-19.5945
482.000000	63.431	-19.0911
487.000000	63.367	-18.6947
494.000000	63.277	-18.1567
500.000000	63.199	-17.7509
508.000000	63.096	-17.2562
515.000000	63.007	-16.8401
522.000000	62.923	-16.4495
530.000000	62.836	-16.0117
538.000000	62.757	-15.5008
545.000000	62.689	-14.9619
552.000000	62.623	-14.3767
560.000000	62.550	-13.7229
570.000000	62.459	-12.9658
580.000000	62.360	-12.1716
590.000000	62.267	-11.2955
600.000000	62.184	-10.3895
608.000000	62.113	-9.6558
615.000000	62.039	-8.9939
622.000000	61.963	-8.3195
630.000000	61.889	-7.5594
640.000000	61.817	-6.5978
650.000000	61.755	-5.5560
660.000000	61.700	-4.4954
670.000000	61.649	-3.5034
680.000000	61.588	-2.5596
690.000000	61.519	-1.6005
700.000000	61.457	-0.6008
710.000000	61.405	0.4286
720.000000	61.364	1.5004
730.000000	61.332	2.6014
740.000000	61.309	3.6851
750.000000	61.297	4.7944
762.000000	61.292	6.1989
775.000000	61.297	7.6315
788.000000	61.313	8.9421
800.000000	61.345	10.1297
812.000000	61.394	11.3339
825.000000	61.457	12.7039
838.000000	61.527	14.1234
850.000000	61.595	15.3669
862.000000	61.669	16.4460
875.000000	61.759	17.4437
885.000000	61.834	18.1428
900.000000	61.952	19.1812
912.000000	62.042	20.0815
925.000000	62.130	21.1261
938.000000	62.218	22.1531
950.000000	62.308	23.0270
962.000000	62.409	23.7988
975.000000	62.531	24.5208
988.000000	62.655	25.1491
1000.000000	62.754	25.6785
1015.000000	62.861	26.3107
1030.000000	62.961	26.9050
1044.000000	63.055	27.3938
1060.000000	63.163	27.8951
1075.000000	63.263	28.4001
1090.000000	63.364	28.9797
1106.000000	63.475	29.6058
1120.000000	63.571	30.1182
1138.000000	63.685	30.7345
1150.000000	63.756	31.1044
1172.000000	63.896	31.6467
1180.000000	63.955	31.8160
1206.000000	64.161	32.3083
1220.000000	64.274	32.5454
1241.000000	64.445	32.9105
1250.000000	64.519	33.0573
1265.000000	64.639	33.2732
1280.000000	64.757	33.4708
1315.000000	65.025	34.0030
1320.000000	65.059	34.0884
1340.000000	65.167	34.4465
1360.000000	65.217	34.8370
1380.000000	65.227	35.2415
1400.000000	65.226	35.6318
1430.000000	65.241	36.1984
1450.000000	65.277	36.6027
1475.000000	65.354	37.1625
1500.000000	65.462	37.7267
1525.000000	65.594	38.2672
1550.000000	65.748	38.7747
1575.000000	65.901	39.3009
1600.000000	66.051	39.8203
1625.000000	66.201	40.2882
1650.000000	66.350	40.7582
1675.000000	66.498	41.2832
1700.000000	66.650	41.8080
1725.000000	66.803	42.3176
1750.000000	66.961	42.8015
1775.000000	67.123	43.2253
1800.000000	67.290	43.6123
1825.000000	67.464	43.9912
1850.000000	67.643	44.3582
1875.000000	67.824	44.7111
1900.000000	68.002	45.0434
1925.000000	68.179	45.3381
1950.000000	68.360	45.5980
1975.000000	68.544	45.8245
2000.000000	68.730	46.0009
2030.000000	68.961	46.1386
2060.000000	69.202	46.2221
2090.000000	69.454	46.2452
2120.000000	69.712	46.1772
2140.000000	69.884	46.0835
2180.000000	70.217	45.7999
2200.000000	70.379	45.6037
2240.000000	70.698	45.0721
2270.000000	70.933	44.5516
2300.000000	71.164	43.9395
2330.000000	71.392	43.2498
2360.000000	71.619	42.4987
2400.000000	71.919	41.3911
2430.000000	72.138	40.4523
2470.000000	72.413	39.0377
2500.000000	72.599	37.8698
2540.000000	72.818	36.1986
2580.000000	73.008	34.4152
2620.000000	73.172	32.5414
2650.000000	73.280	31.0953
2690.000000	73.398	29.1436
2720.000000	73.466	27.6813
2760.000000	73.530	25.7465
2800.000000	73.567	23.8406
2850.000000	73.575	21.5336
2900.000000	73.546	19.3765
2950.000000	73.489	17.4406
3000.000000	73.405	15.6953
3040.000000	73.320	14.4121
3070.000000	73.250	13.5294
3110.000000	73.147	12.4757
3150.000000	73.040	11.5616
3200.000000	72.904	10.5955
3250.000000	72.769	9.8010
3300.000000	72.638	9.1816
3350.000000	72.510	8.7173
3400.000000	72.380	8.3667
3450.000000	72.251	8.1194
3500.000000	72.132	7.9789
3550.000000	72.028	7.9458
3600.000000	71.939	8.0043
3650.000000	71.866	8.1266
3700.000000	71.814	8.2967
3750.000000	71.783	8.5072
3820.000000	71.777	8.8837
3870.000000	71.798	9.2061
3950.000000	71.872	9.7162
4000.000000	71.939	10.0023
4060.000000	72.031	10.2940
4120.000000	72.129	10.4722
4180.000000	72.234	10.4968
4250.000000	72.371	10.3275
4310.000000	72.509	9.9945
4370.000000	72.665	9.4318
4440.000000	72.869	8.3650
4500.000000	73.049	6.9897
4550.000000	73.184	5.4775
4620.000000	73.310	2.8549
4680.000000	73.321	0.3408
4750.000000	73.185	-2.3546
4820.000000	72.913	-3.9963
4870.000000	72.701	-4.1885
4940.000000	72.536	-3.2084
5000.000000	72.631	-1.9108
5080.000000	73.094	-1.1386
5150.000000	73.635	-2.4755
5220.000000	74.108	-5.9525
5300.000000	74.413	-11.9678
5380.000000	74.396	-19.0756
5450.000000	74.115	-25.2816
5520.000000	73.614	-30.8005
5600.000000	72.827	-35.6569
5700.000000	71.667	-38.9545
5800.000000	70.612	-39.7482
5900.000000	69.856	-40.4731
6000.000000	69.137	-41.9055
6080.000000	68.463	-42.6555
6150.000000	67.825	-42.7100
6220.000000	67.182	-42.2435
6300.000000	66.476	-41.1982
6400.000000	65.658	-39.2919
6500.000000	64.914	-36.9090
6600.000000	64.234	-34.2325
6700.000000	63.621	-31.3818
6800.000000	63.083	-28.3881
6900.000000	62.619	-25.2192
7000.000000	62.218	-21.8931
7100.000000	61.879	-18.5059
7200.000000	61.608	-15.1309
7300.000000	61.395	-11.7708
7400.000000	61.245	-8.4181
7500.000000	61.172	-5.0434
7620.000000	61.182	-0.8719
7750.000000	61.251	3.8090
7880.000000	61.330	8.4330
8000.000000	61.397	12.5529
8120.000000	61.472	16.5867
8250.000000	61.610	20.9263
8380.000000	61.855	25.2474
8500.000000	62.222	29.1383
8620.000000	62.748	32.7721
8750.000000	63.503	36.2417
8850.000000	64.215	38.4700
9000.000000	65.510	40.7717
9120.000000	66.728	41.1998
9250.000000	68.147	39.4160
9380.000000	69.512	34.3495
9500.000000	70.542	26.1523
9620.000000	71.178	14.7911
9750.000000	71.285	0.5769
9880.000000	70.759	-12.8713
10000.000000	69.795	-22.5734
10150.000000	68.163	-30.0371
10300.000000	66.336	-32.9894
10440.000000	64.670	-32.9035
10600.000000	62.971	-30.7984
10750.000000	61.631	-27.7273
10900.000000	60.528	-23.9967
11060.000000	59.582	-19.4972
11200.000000	58.921	-15.2488
11380.000000	58.247	-9.5612
11500.000000	57.883	-5.6626
11720.000000	57.407	1.6284
11800.000000	57.306	4.2553
12060.000000	57.262	12.6255
12200.000000	57.413	16.9854
12410.000000	57.854	23.1626
12500.000000	58.127	25.6113
12650.000000	58.708	29.3052
12800.000000	59.461	32.3135
13150.000000	61.737	34.2673
13200.000000	62.084	33.6110
13400.000000	63.363	27.4716
13600.000000	64.210	15.1306
13800.000000	64.311	-1.5264
14000.000000	63.523	-17.7109
14300.000000	60.987	-32.8513
14500.000000	58.843	-37.1001
14750.000000	56.185	-43.0648
15000.000000	53.878	-65.8752
15250.000000	52.009	-128.8316
15500.000000	50.492	133.4120
15750.000000	49.257	55.0458
16000.000000	48.354	19.2139
16250.000000	47.831	0.7646
16500.000000	47.711	-41.5613
16750.000000	48.018	-171.5537
17000.000000	48.672	-103.7329
17250.000000	49.455	-178.7561
17500.000000	50.339	131.8298
17750.000000	51.455	-123.8317
18000.000000	52.672	117.3805
18250.000000	53.727	67.6794
18500.000000	54.417	38.6370
18750.000000	54.639	1.1960
19000.000000	54.409	-74.7800
19250.000000	53.829	129.3472
19500.000000	53.031	-135.1941
19750.000000	52.176	-104.5405
