* Measurement data measured by REW V5.31.3
* Source: Microphone (6- USB Sound Device        ), MICROPHONE (Master Volume), L, volume: 0.700
* Format: 256k Log Swept Sine, 1 sweep at -12.0 dBFS with no timing reference
* Dated: 09-Jun-2025 09:49:41
* REW Settings:
*  C-weighting compensation: Off
*  Target level: 75.0 dB
* Note: 
* Measurement: Rock
* Smoothing: 1/12 octave
* Frequency Step: 1/48 octave
* Start Frequency: 20.300 Hz
*
* Freq(Hz)	SPL(dB)	Phase(degrees)
20.299999	87.292	151.2759
20.600000	87.298	151.0331
20.900000	87.311	150.7572
21.200001	87.334	150.4841
21.400000	87.355	150.2994
21.799999	87.408	149.8926
22.000000	87.438	149.6592
22.400000	87.499	149.1252
22.700001	87.540	148.6790
23.000000	87.574	148.2158
23.299999	87.602	147.7567
23.600000	87.627	147.3168
24.000000	87.661	146.7671
24.299999	87.691	146.3724
24.700001	87.740	145.8396
25.000000	87.785	145.4143
25.400000	87.848	144.7950
25.799999	87.910	144.1210
26.200001	87.964	143.4179
26.500000	87.998	142.8896
26.900000	88.039	142.1963
27.200001	88.069	141.6821
27.600000	88.111	140.9884
28.000000	88.156	140.2685
28.500000	88.214	139.3281
29.000000	88.273	138.3696
29.500000	88.335	137.4204
30.000000	88.403	136.4723
30.400000	88.458	135.6954
30.700001	88.498	135.0964
31.100000	88.547	134.2821
31.500000	88.591	133.4646
32.000000	88.644	132.4592
32.500000	88.700	131.4728
33.000000	88.761	130.4839
33.500000	88.823	129.4730
34.000000	88.885	128.4358
34.500000	88.944	127.3758
35.000000	89.000	126.2939
35.500000	89.053	125.1895
36.000000	89.103	124.0681
36.500000	89.151	122.9405
37.000000	89.198	121.8141
37.500000	89.242	120.6873
38.200001	89.295	119.1026
38.700001	89.325	117.9713
39.500000	89.365	116.1917
40.000000	89.393	115.1019
40.599998	89.435	113.7953
41.200001	89.482	112.4629
41.799999	89.527	111.1001
42.500000	89.563	109.5009
43.099998	89.580	108.1436
43.700001	89.591	106.7880
44.400002	89.605	105.1704
45.000000	89.623	103.7371
45.500000	89.640	102.5226
46.200001	89.663	100.8372
46.799999	89.679	99.4433
47.500000	89.691	97.8894
48.200001	89.702	96.3811
48.700001	89.709	95.3053
49.400002	89.719	93.7857
50.000000	89.721	92.4791
50.799999	89.712	90.7445
51.500000	89.694	89.2210
52.200001	89.668	87.6764
53.000000	89.634	85.8946
53.799999	89.603	84.1188
54.500000	89.581	82.5798
55.200001	89.563	81.0565
56.000000	89.540	79.3344
57.000000	89.505	77.1901
58.000000	89.467	75.0320
59.000000	89.432	72.8798
60.000000	89.395	70.7579
60.799999	89.359	69.0918
61.500000	89.320	67.6658
62.200001	89.277	66.2636
63.000000	89.228	64.6685
64.000000	89.165	62.6739
65.000000	89.101	60.7137
66.000000	89.036	58.7989
67.000000	88.964	56.8992
68.000000	88.879	55.0262
69.000000	88.789	53.2051
70.000000	88.709	51.4024
71.000000	88.640	49.5751
72.000000	88.571	47.7340
73.000000	88.489	45.9231
74.000000	88.393	44.1582
75.000000	88.294	42.4021
76.199997	88.177	40.2623
77.500000	88.054	37.9798
78.800003	87.922	35.8175
80.000000	87.787	33.9383
81.199997	87.652	32.1714
82.500000	87.512	30.3366
83.800003	87.374	28.4812
85.000000	87.245	26.6840
86.199997	87.114	24.8826
87.500000	86.970	23.0547
88.500000	86.858	21.7313
90.000000	86.693	19.7779
91.199997	86.565	18.2351
92.500000	86.429	16.6133
93.800003	86.291	15.0372
95.000000	86.158	13.6230
96.199997	86.018	12.2413
97.500000	85.859	10.7654
98.800003	85.699	9.2991
100.000000	85.559	7.9719
101.500000	85.403	6.4091
103.000000	85.262	4.9622
104.400002	85.131	3.6659
106.000000	84.980	2.2054
107.500000	84.844	0.8465
109.000000	84.718	-0.4791
110.599998	84.588	-1.8232
112.000000	84.476	-2.9667
113.800003	84.335	-4.4356
115.000000	84.245	-5.4207
117.199997	84.101	-7.2213
118.000000	84.055	-7.8511
120.599998	83.908	-9.7742
122.000000	83.824	-10.7851
124.099998	83.703	-12.3315
125.000000	83.658	-13.0033
126.500000	83.591	-14.1353
128.000000	83.529	-15.3023
131.500000	83.381	-18.1641
132.000000	83.361	-18.5759
134.000000	83.289	-20.1916
136.000000	83.226	-21.7193
138.000000	83.168	-23.1801
140.000000	83.115	-24.6739
143.000000	83.031	-27.0739
145.000000	82.966	-28.6397
147.500000	82.888	-30.5011
150.000000	82.817	-32.4199
152.500000	82.745	-34.3591
155.000000	82.678	-36.2954
157.500000	82.617	-38.3360
160.000000	82.562	-40.4600
162.500000	82.512	-42.5974
165.000000	82.467	-44.6423
167.500000	82.422	-46.5324
170.000000	82.377	-48.3448
172.500000	82.332	-50.1849
175.000000	82.282	-52.1302
177.500000	82.218	-54.1356
180.000000	82.139	-56.1100
182.500000	82.048	-57.9952
185.000000	81.949	-59.7806
187.500000	81.850	-61.5184
190.000000	81.764	-63.2476
192.500000	81.692	-64.9775
195.000000	81.631	-66.7010
197.500000	81.578	-68.4086
200.000000	81.529	-70.0914
203.000000	81.480	-72.0738
206.000000	81.450	-74.0213
209.000000	81.434	-75.9663
212.000000	81.420	-77.9188
214.000000	81.408	-79.2030
218.000000	81.378	-81.7335
220.000000	81.363	-82.9874
224.000000	81.330	-85.4378
227.000000	81.303	-87.2245
230.000000	81.279	-88.9925
233.000000	81.261	-90.7769
236.000000	81.248	-92.6124
240.000000	81.242	-95.1546
243.000000	81.244	-97.0786
247.000000	81.248	-99.6003
250.000000	81.251	-101.4564
254.000000	81.258	-103.9125
258.000000	81.265	-106.3801
262.000000	81.272	-108.8526
265.000000	81.279	-110.7133
269.000000	81.298	-113.2045
272.000000	81.319	-115.0674
276.000000	81.352	-117.5276
280.000000	81.385	-119.9728
285.000000	81.434	-123.0374
290.000000	81.496	-126.1095
295.000000	81.561	-129.1604
300.000000	81.623	-132.2672
304.000000	81.670	-134.8024
307.000000	81.705	-136.7120
311.000000	81.754	-139.2633
315.000000	81.804	-141.8307
320.000000	81.866	-145.0615
325.000000	81.927	-148.2872
330.000000	81.988	-151.4921
335.000000	82.047	-154.6371
340.000000	82.103	-157.7522
345.000000	82.154	-160.9364
350.000000	82.204	-164.2224
355.000000	82.258	-167.5710
360.000000	82.322	-170.9110
365.000000	82.398	-174.1933
370.000000	82.476	-177.4453
375.000000	82.545	179.2875
382.000000	82.624	174.7028
387.000000	82.679	171.4697
395.000000	82.768	166.3441
400.000000	82.813	163.1282
406.000000	82.856	159.2726
412.000000	82.898	155.3915
418.000000	82.950	151.5173
425.000000	83.018	147.1060
431.000000	83.068	143.3639
437.000000	83.104	139.5565
444.000000	83.141	134.9807
450.000000	83.170	131.0217
455.000000	83.193	127.7711
462.000000	83.221	123.3318
468.000000	83.241	119.5943
475.000000	83.264	115.2607
482.000000	83.286	110.9896
487.000000	83.301	108.0016
494.000000	83.326	103.8722
500.000000	83.355	100.3379
508.000000	83.400	95.6053
515.000000	83.436	91.4397
522.000000	83.468	87.2927
530.000000	83.500	82.6414
538.000000	83.520	78.0725
545.000000	83.527	74.1078
552.000000	83.530	70.1581
560.000000	83.535	65.6410
570.000000	83.546	59.9928
580.000000	83.562	54.3652
590.000000	83.581	48.8012
600.000000	83.594	43.3444
608.000000	83.591	39.0429
615.000000	83.582	35.2952
622.000000	83.571	31.5669
630.000000	83.561	27.3486
640.000000	83.548	22.1649
650.000000	83.536	17.0889
660.000000	83.528	12.0788
670.000000	83.521	7.1412
680.000000	83.518	2.2760
690.000000	83.514	-2.5291
700.000000	83.508	-7.2632
710.000000	83.503	-11.9937
720.000000	83.498	-16.7668
730.000000	83.490	-21.5424
740.000000	83.481	-26.2762
750.000000	83.475	-30.9142
762.000000	83.473	-36.2724
775.000000	83.473	-41.9189
788.000000	83.472	-47.6136
800.000000	83.472	-52.8513
812.000000	83.470	-57.9121
825.000000	83.464	-63.2399
838.000000	83.462	-68.5267
850.000000	83.465	-73.3870
862.000000	83.474	-78.2144
875.000000	83.491	-83.3618
885.000000	83.505	-87.2332
900.000000	83.524	-92.9358
912.000000	83.542	-97.4628
925.000000	83.564	-102.3285
938.000000	83.591	-107.1709
950.000000	83.622	-111.6127
962.000000	83.657	-116.0123
975.000000	83.697	-120.7583
988.000000	83.740	-125.5135
1000.000000	83.787	-129.9017
1015.000000	83.855	-135.3293
1030.000000	83.923	-140.6593
1044.000000	83.988	-145.5778
1060.000000	84.073	-151.1312
1075.000000	84.155	-156.2734
1090.000000	84.231	-161.3610
1106.000000	84.306	-166.7130
1120.000000	84.370	-171.3477
1138.000000	84.466	-177.2733
1150.000000	84.539	178.7899
1172.000000	84.672	171.5903
1180.000000	84.717	168.9789
1206.000000	84.869	160.5549
1220.000000	84.959	156.0911
1241.000000	85.101	149.4880
1250.000000	85.166	146.6754
1265.000000	85.283	142.0165
1280.000000	85.408	137.4029
1315.000000	85.695	126.8750
1320.000000	85.729	125.3953
1340.000000	85.834	119.5160
1360.000000	85.888	113.7142
1380.000000	85.905	108.0042
1400.000000	85.915	102.3970
1430.000000	85.960	94.1020
1450.000000	86.018	88.6513
1475.000000	86.113	82.0297
1500.000000	86.240	75.6025
1525.000000	86.391	69.3427
1550.000000	86.554	63.2042
1575.000000	86.727	57.1077
1600.000000	86.911	51.0319
1625.000000	87.107	45.0436
1650.000000	87.311	39.1929
1675.000000	87.515	33.3795
1700.000000	87.720	27.5325
1725.000000	87.931	21.6884
1750.000000	88.150	15.8848
1775.000000	88.372	10.1495
1800.000000	88.589	4.4830
1825.000000	88.800	-1.1342
1850.000000	89.001	-6.7130
1875.000000	89.193	-12.2734
1900.000000	89.375	-17.8085
1925.000000	89.547	-23.2778
1950.000000	89.713	-28.6650
1975.000000	89.879	-33.9737
2000.000000	90.049	-39.2079
2030.000000	90.254	-45.3775
2060.000000	90.445	-51.4451
2090.000000	90.623	-57.4766
2120.000000	90.800	-63.4814
2140.000000	90.918	-67.4505
2180.000000	91.148	-75.2877
2200.000000	91.257	-79.1325
2240.000000	91.452	-86.6334
2270.000000	91.577	-92.1271
2300.000000	91.690	-97.5200
2330.000000	91.794	-102.8056
2360.000000	91.894	-107.9627
2400.000000	92.029	-114.6165
2430.000000	92.122	-119.4507
2470.000000	92.232	-125.7134
2500.000000	92.307	-130.2900
2540.000000	92.403	-136.1976
2580.000000	92.499	-141.8279
2620.000000	92.595	-147.1704
2650.000000	92.673	-151.0100
2690.000000	92.791	-155.9863
2720.000000	92.890	-159.6699
2760.000000	93.026	-164.5664
2800.000000	93.164	-169.4363
2850.000000	93.327	-175.4351
2900.000000	93.477	178.6196
2950.000000	93.606	172.7578
3000.000000	93.710	167.0540
3040.000000	93.767	162.6538
3070.000000	93.789	159.4626
3110.000000	93.790	155.3470
3150.000000	93.765	151.3986
3200.000000	93.711	146.7094
3250.000000	93.637	142.3081
3300.000000	93.532	138.2341
3350.000000	93.393	134.5532
3400.000000	93.231	131.2959
3450.000000	93.054	128.4589
3500.000000	92.862	126.0348
3550.000000	92.653	124.0220
3600.000000	92.430	122.4302
3650.000000	92.208	121.2891
3700.000000	92.015	120.5879
3750.000000	91.871	120.2173
3820.000000	91.740	120.0919
3870.000000	91.670	120.2463
3950.000000	91.569	121.0459
4000.000000	91.513	121.9207
4060.000000	91.459	123.3182
4120.000000	91.425	125.0494
4180.000000	91.405	127.0458
4250.000000	91.398	129.6340
4310.000000	91.421	132.0149
4370.000000	91.475	134.5222
4440.000000	91.581	137.5535
4500.000000	91.712	140.1721
4550.000000	91.845	142.3298
4620.000000	92.053	145.2476
4680.000000	92.238	147.5969
4750.000000	92.440	150.1147
4820.000000	92.597	152.3823
4870.000000	92.667	153.8623
4940.000000	92.685	155.7904
5000.000000	92.611	157.4242
5080.000000	92.361	159.8652
5150.000000	91.997	162.5520
5220.000000	91.512	166.0408
5300.000000	90.849	171.3102
5380.000000	90.132	178.1313
5450.000000	89.503	-174.6362
5520.000000	88.906	-166.3253
5600.000000	88.296	-155.6906
5700.000000	87.671	-141.1108
5800.000000	87.198	-125.5756
5900.000000	86.860	-109.3461
6000.000000	86.644	-92.5992
6080.000000	86.545	-78.8984
6150.000000	86.503	-66.6829
6220.000000	86.500	-54.2520
6300.000000	86.542	-39.8060
6400.000000	86.664	-21.5034
6500.000000	86.861	-3.0919
6600.000000	87.119	15.3212
6700.000000	87.431	33.6970
6800.000000	87.787	52.0444
6900.000000	88.187	70.4349
7000.000000	88.634	88.8999
7100.000000	89.140	107.4420
7200.000000	89.717	126.0072
7300.000000	90.373	144.3392
7400.000000	91.099	161.9232
7500.000000	91.858	178.1008
7620.000000	92.696	-165.0336
7750.000000	93.294	-149.8440
7880.000000	93.354	-136.5555
8000.000000	92.851	-124.0940
8120.000000	91.857	-109.6063
8250.000000	90.382	-90.1246
8380.000000	88.694	-66.0331
8500.000000	87.112	-39.9316
8620.000000	85.611	-10.8943
8750.000000	84.132	22.8895
8850.000000	83.108	50.0519
9000.000000	81.745	92.1381
9120.000000	80.780	126.6751
9250.000000	79.837	164.8499
9380.000000	78.986	-156.1559
9500.000000	78.278	-119.4145
9620.000000	77.649	-81.9741
9750.000000	77.063	-40.5714
9880.000000	76.576	1.4916
10000.000000	76.205	40.5733
10150.000000	75.832	89.8197
10300.000000	75.545	139.6676
10440.000000	75.343	-173.4077
10600.000000	75.182	-119.4984
10750.000000	75.094	-68.3630
10900.000000	75.075	-16.4324
11060.000000	75.130	39.2383
11200.000000	75.237	88.4257
11380.000000	75.450	152.1151
11500.000000	75.636	-165.2313
11720.000000	76.087	-85.5428
11800.000000	76.294	-56.1786
12060.000000	77.143	40.0894
12200.000000	77.710	92.1497
12410.000000	78.713	170.9739
12500.000000	79.201	-155.0948
12650.000000	80.090	-97.9397
12800.000000	81.060	-38.0793
13150.000000	83.381	103.2424
13200.000000	83.677	119.2510
13400.000000	84.621	170.8557
13600.000000	84.973	-149.5592
13800.000000	84.558	-113.7559
14000.000000	83.411	-75.1792
14300.000000	80.846	5.6650
14500.000000	79.004	99.2722
14750.000000	76.947	-130.9727
15000.000000	75.337	-19.6277
15250.000000	74.157	91.4451
15500.000000	73.308	-154.0544
15750.000000	72.751	-39.5999
16000.000000	72.508	80.0540
16250.000000	72.530	-166.2803
16500.000000	72.628	-60.0149
16750.000000	72.563	30.6086
17000.000000	72.160	112.6108
17250.000000	71.386	-163.5837
17500.000000	70.353	-69.7793
17750.000000	69.274	64.2070
18000.000000	68.383	-136.7761
18250.000000	67.818	-25.4736
18500.000000	67.562	108.3623
18750.000000	67.489	-120.4187
19000.000000	67.448	-16.3101
19250.000000	67.326	79.1255
19500.000000	67.080	98.7268
19750.000000	66.762	43.5063
20000.000000	66.534	59.3218
