* Measurement data measured by REW V5.31.3
* Source: Microphone (6- USB Sound Device        ), MICROPHONE (Master Volume), L, volume: 0.700
* Format: 256k Log Swept Sine, 1 sweep at -12.0 dBFS with no timing reference
* Dated: 09-Jun-2025 09:47:05
* REW Settings:
*  C-weighting compensation: Off
*  Target level: 75.0 dB
* Note: 
* Measurement: Rock
* Smoothing: 1/12 octave
* Frequency Step: 1/48 octave
* Start Frequency: 20.300 Hz
*
* Freq(Hz)	SPL(dB)	Phase(degrees)
20.299999	94.834	157.3935
20.600000	94.862	156.6164
20.900000	94.896	155.6414
21.200001	94.929	154.5962
21.400000	94.949	153.8849
21.799999	94.987	152.4476
22.000000	95.004	151.7256
22.400000	95.038	150.2834
22.700001	95.063	149.2101
23.000000	95.088	148.1495
23.299999	95.115	147.1048
23.600000	95.142	146.0773
24.000000	95.177	144.7344
24.299999	95.204	143.7466
24.700001	95.237	142.4530
25.000000	95.263	141.4975
25.400000	95.297	140.2353
25.799999	95.331	138.9743
26.200001	95.365	137.7003
26.500000	95.391	136.7303
26.900000	95.423	135.4165
27.200001	95.444	134.4202
27.600000	95.469	133.0910
28.000000	95.488	131.7800
28.500000	95.505	130.1924
29.000000	95.520	128.6662
29.500000	95.536	127.1732
30.000000	95.555	125.6704
30.400000	95.571	124.4437
30.700001	95.582	123.5103
31.100000	95.595	122.2589
31.500000	95.606	121.0146
32.000000	95.620	119.4873
32.500000	95.634	117.9953
33.000000	95.647	116.5266
33.500000	95.660	115.0620
34.000000	95.670	113.5874
34.500000	95.677	112.1044
35.000000	95.680	110.6318
35.500000	95.681	109.1907
36.000000	95.684	107.7827
36.500000	95.690	106.3850
37.000000	95.696	104.9714
37.500000	95.699	103.5379
38.200001	95.694	101.5403
38.700001	95.686	100.1503
39.500000	95.675	97.9862
40.000000	95.667	96.6450
40.599998	95.657	95.0206
41.200001	95.646	93.3641
41.799999	95.638	91.6778
42.500000	95.634	89.7176
43.099998	95.635	88.0932
43.700001	95.642	86.5345
44.400002	95.650	84.7693
45.000000	95.648	83.2705
45.500000	95.638	82.0210
46.200001	95.611	80.2687
46.799999	95.582	78.7677
47.500000	95.548	77.0208
48.200001	95.523	75.2665
48.700001	95.513	73.9997
49.400002	95.501	72.2163
50.000000	95.488	70.7063
50.799999	95.461	68.7487
51.500000	95.434	67.0667
52.200001	95.403	65.3755
53.000000	95.363	63.4240
53.799999	95.319	61.4952
54.500000	95.284	59.8533
55.200001	95.258	58.2270
56.000000	95.234	56.3262
57.000000	95.195	53.8714
58.000000	95.142	51.4036
59.000000	95.085	48.9800
60.000000	95.033	46.6149
60.799999	94.995	44.7585
61.500000	94.961	43.1661
62.200001	94.925	41.6124
63.000000	94.883	39.8708
64.000000	94.831	37.6915
65.000000	94.779	35.5023
66.000000	94.729	33.3530
67.000000	94.680	31.2334
68.000000	94.624	29.0919
69.000000	94.554	26.9279
70.000000	94.477	24.7578
71.000000	94.398	22.5923
72.000000	94.321	20.4653
73.000000	94.251	18.4043
74.000000	94.186	16.3715
75.000000	94.118	14.3072
76.199997	94.021	11.8046
77.500000	93.907	9.1618
78.800003	93.795	6.6162
80.000000	93.701	4.2979
81.199997	93.611	1.9619
82.500000	93.508	-0.5915
83.800003	93.404	-3.1004
85.000000	93.309	-5.3468
86.199997	93.212	-7.5594
87.500000	93.105	-9.9499
88.500000	93.021	-11.7693
90.000000	92.889	-14.4430
91.199997	92.778	-16.5630
92.500000	92.659	-18.8739
93.800003	92.546	-21.1967
95.000000	92.444	-23.3320
96.199997	92.340	-25.4190
97.500000	92.221	-27.5939
98.800003	92.099	-29.6982
100.000000	91.989	-31.6222
101.500000	91.856	-34.0532
103.000000	91.725	-36.5166
104.400002	91.601	-38.7910
106.000000	91.451	-41.2796
107.500000	91.307	-43.5066
109.000000	91.168	-45.6843
110.599998	91.034	-47.9649
112.000000	90.930	-49.9120
113.800003	90.799	-52.3902
115.000000	90.704	-54.0626
117.199997	90.511	-57.1786
118.000000	90.441	-58.3213
120.599998	90.234	-62.0137
122.000000	90.131	-63.9438
124.099998	89.972	-66.7128
125.000000	89.906	-67.8525
126.500000	89.799	-69.7256
128.000000	89.696	-71.6202
131.500000	89.444	-76.1742
132.000000	89.406	-76.8237
134.000000	89.254	-79.3756
136.000000	89.111	-81.8412
138.000000	88.973	-84.2462
140.000000	88.836	-86.6641
143.000000	88.628	-90.3615
145.000000	88.484	-92.7913
147.500000	88.313	-95.7083
150.000000	88.159	-98.5509
152.500000	88.017	-101.4434
155.000000	87.874	-104.3828
157.500000	87.724	-107.3410
160.000000	87.576	-110.2564
162.500000	87.434	-113.0657
165.000000	87.299	-115.7659
167.500000	87.173	-118.3723
170.000000	87.051	-120.9484
172.500000	86.931	-123.5746
175.000000	86.808	-126.2081
177.500000	86.679	-128.7666
180.000000	86.543	-131.2934
182.500000	86.398	-133.8435
185.000000	86.243	-136.3977
187.500000	86.081	-138.8968
190.000000	85.921	-141.3008
192.500000	85.776	-143.5999
195.000000	85.648	-145.8079
197.500000	85.538	-147.9553
200.000000	85.445	-150.0859
203.000000	85.364	-152.6846
206.000000	85.311	-155.3532
209.000000	85.267	-158.0517
212.000000	85.213	-160.7299
214.000000	85.168	-162.5008
218.000000	85.066	-166.0331
220.000000	85.015	-167.7734
224.000000	84.930	-171.1266
227.000000	84.882	-173.5544
230.000000	84.851	-175.9625
233.000000	84.834	-178.3979
236.000000	84.821	179.0930
240.000000	84.804	175.6768
243.000000	84.790	173.1119
247.000000	84.770	169.6387
250.000000	84.760	166.9586
254.000000	84.750	163.3616
258.000000	84.736	159.7909
262.000000	84.718	156.1953
265.000000	84.712	153.4764
269.000000	84.716	149.8561
272.000000	84.721	147.1644
276.000000	84.722	143.6150
280.000000	84.717	140.0646
285.000000	84.715	135.5882
290.000000	84.730	131.0947
295.000000	84.763	126.5236
300.000000	84.802	121.9054
304.000000	84.829	118.2318
307.000000	84.844	115.4997
311.000000	84.860	111.8654
315.000000	84.874	108.1989
320.000000	84.891	103.5424
325.000000	84.904	98.8404
330.000000	84.910	94.1617
335.000000	84.917	89.5570
340.000000	84.929	85.0093
345.000000	84.940	80.4445
350.000000	84.943	75.8008
355.000000	84.938	71.1448
360.000000	84.930	66.5700
365.000000	84.927	62.0324
370.000000	84.930	57.4422
375.000000	84.932	52.7820
382.000000	84.928	46.2216
387.000000	84.917	41.5700
395.000000	84.909	34.1594
400.000000	84.907	29.5521
406.000000	84.895	24.0977
412.000000	84.868	18.7843
418.000000	84.835	13.6042
425.000000	84.797	7.6179
431.000000	84.762	2.4642
437.000000	84.726	-2.7800
444.000000	84.685	-9.0226
450.000000	84.648	-14.3406
455.000000	84.620	-18.6672
462.000000	84.585	-24.5833
468.000000	84.554	-29.6013
475.000000	84.508	-35.4365
482.000000	84.449	-41.2560
487.000000	84.402	-45.4164
494.000000	84.337	-51.2324
500.000000	84.288	-56.1738
508.000000	84.235	-62.6555
515.000000	84.190	-68.2297
522.000000	84.137	-73.7723
530.000000	84.071	-80.0729
538.000000	84.001	-86.3257
545.000000	83.933	-91.7598
552.000000	83.863	-97.1680
560.000000	83.791	-103.3337
570.000000	83.717	-110.9908
580.000000	83.655	-118.5175
590.000000	83.590	-125.9634
600.000000	83.512	-133.3918
608.000000	83.440	-139.3053
615.000000	83.372	-144.4269
622.000000	83.302	-149.4727
630.000000	83.228	-155.1502
640.000000	83.145	-162.1535
650.000000	83.067	-169.0641
660.000000	82.988	-175.9075
670.000000	82.912	177.2480
680.000000	82.844	170.4165
690.000000	82.780	163.6715
700.000000	82.718	157.0452
710.000000	82.651	150.4901
720.000000	82.576	143.9286
730.000000	82.507	137.3715
740.000000	82.448	130.8956
750.000000	82.386	124.5253
762.000000	82.298	116.9995
775.000000	82.204	108.9538
788.000000	82.124	100.9476
800.000000	82.064	93.5592
812.000000	82.017	86.2435
825.000000	81.974	78.5083
838.000000	81.928	70.9847
850.000000	81.885	64.1033
862.000000	81.851	57.2119
875.000000	81.825	49.7615
885.000000	81.812	44.0699
900.000000	81.801	35.6529
912.000000	81.800	28.9993
925.000000	81.801	21.8338
938.000000	81.801	14.7128
950.000000	81.802	8.1598
962.000000	81.806	1.6044
975.000000	81.819	-5.4696
988.000000	81.840	-12.4714
1000.000000	81.860	-18.8837
1015.000000	81.888	-26.8865
1030.000000	81.923	-34.8855
1044.000000	81.966	-42.3313
1060.000000	82.021	-50.7645
1075.000000	82.076	-58.5747
1090.000000	82.136	-66.3139
1106.000000	82.195	-74.5139
1120.000000	82.237	-81.6523
1138.000000	82.291	-90.8254
1150.000000	82.337	-96.9566
1172.000000	82.441	-108.2133
1180.000000	82.481	-112.2852
1206.000000	82.608	-125.3398
1220.000000	82.676	-132.2594
1241.000000	82.790	-142.5645
1250.000000	82.846	-146.9661
1265.000000	82.950	-154.2699
1280.000000	83.063	-161.5194
1315.000000	83.310	-178.2834
1320.000000	83.338	179.3403
1340.000000	83.421	169.9114
1360.000000	83.454	160.6011
1380.000000	83.454	151.3605
1400.000000	83.451	142.1953
1430.000000	83.474	128.6603
1450.000000	83.509	119.7616
1475.000000	83.566	108.7727
1500.000000	83.647	97.9299
1525.000000	83.769	87.2173
1550.000000	83.925	76.6245
1575.000000	84.100	66.1327
1600.000000	84.286	55.7004
1625.000000	84.483	45.3345
1650.000000	84.682	35.0530
1675.000000	84.879	24.8689
1700.000000	85.067	14.7476
1725.000000	85.250	4.6167
1750.000000	85.436	-5.5356
1775.000000	85.624	-15.6763
1800.000000	85.808	-25.7249
1825.000000	85.983	-35.6704
1850.000000	86.152	-45.5620
1875.000000	86.317	-55.4059
1900.000000	86.477	-65.1851
1925.000000	86.630	-74.9043
1950.000000	86.775	-84.5431
1975.000000	86.911	-94.0735
2000.000000	87.038	-103.5063
2030.000000	87.191	-114.7646
2060.000000	87.352	-125.9452
2090.000000	87.517	-137.0043
2120.000000	87.676	-147.9891
2140.000000	87.778	-155.2683
2180.000000	87.966	-169.6035
2200.000000	88.048	-176.6602
2240.000000	88.186	169.3491
2270.000000	88.271	158.9445
2300.000000	88.351	148.6873
2330.000000	88.427	138.6160
2360.000000	88.498	128.6748
2400.000000	88.585	115.6187
2430.000000	88.646	106.0034
2470.000000	88.721	93.3950
2500.000000	88.773	84.1158
2540.000000	88.834	72.0249
2580.000000	88.891	60.2686
2620.000000	88.949	48.8352
2650.000000	89.000	40.4415
2690.000000	89.091	29.4095
2720.000000	89.179	21.1975
2760.000000	89.311	10.2971
2800.000000	89.451	-0.4910
2850.000000	89.628	-13.7489
2900.000000	89.791	-26.8147
2950.000000	89.933	-39.7604
3000.000000	90.069	-52.5359
3040.000000	90.173	-62.5612
3070.000000	90.242	-69.9574
3110.000000	90.319	-79.6936
3150.000000	90.386	-89.3295
3200.000000	90.463	-101.2460
3250.000000	90.532	-112.9653
3300.000000	90.588	-124.4275
3350.000000	90.624	-135.5829
3400.000000	90.635	-146.4177
3450.000000	90.620	-156.9591
3500.000000	90.582	-167.1885
3550.000000	90.520	-177.0627
3600.000000	90.441	173.4406
3650.000000	90.360	164.3065
3700.000000	90.302	155.5077
3750.000000	90.276	146.9836
3820.000000	90.277	135.3966
3870.000000	90.284	127.3699
3950.000000	90.297	115.1538
4000.000000	90.309	107.9280
4060.000000	90.330	99.5769
4120.000000	90.357	91.5322
4180.000000	90.396	83.8018
4250.000000	90.463	75.1764
4310.000000	90.541	68.0344
4370.000000	90.647	61.0374
4440.000000	90.816	52.9875
4500.000000	90.996	46.1249
4550.000000	91.166	40.3928
4620.000000	91.424	32.2976
4680.000000	91.650	25.2583
4750.000000	91.893	16.8906
4820.000000	92.083	8.3459
4870.000000	92.168	2.1519
4940.000000	92.196	-6.5923
5000.000000	92.123	-14.0466
5080.000000	91.871	-23.5918
5150.000000	91.499	-31.2749
5220.000000	91.002	-38.0873
5300.000000	90.320	-44.5887
5380.000000	89.574	-49.5997
5450.000000	88.919	-52.7585
5520.000000	88.302	-54.9121
5600.000000	87.676	-56.3599
5700.000000	87.029	-56.9845
5800.000000	86.531	-56.6830
5900.000000	86.156	-55.7350
6000.000000	85.873	-54.2139
6080.000000	85.693	-52.5695
6150.000000	85.561	-50.8103
6220.000000	85.447	-48.7465
6300.000000	85.344	-46.0089
6400.000000	85.271	-42.0483
6500.000000	85.269	-37.5848
6600.000000	85.337	-32.7144
6700.000000	85.475	-27.4332
6800.000000	85.695	-21.7388
6900.000000	86.010	-15.6761
7000.000000	86.429	-9.3523
7100.000000	86.967	-2.9810
7200.000000	87.636	3.1731
7300.000000	88.429	8.7815
7400.000000	89.310	13.4218
7500.000000	90.215	16.6906
7620.000000	91.195	18.5227
7750.000000	91.909	18.2458
7880.000000	92.057	16.8206
8000.000000	91.625	16.0314
8120.000000	90.706	17.1711
8250.000000	89.317	21.7020
8380.000000	87.722	30.0912
8500.000000	86.233	41.0856
8620.000000	84.840	54.7250
8750.000000	83.503	71.8357
8850.000000	82.608	86.2803
9000.000000	81.467	109.5565
9120.000000	80.704	129.3185
9250.000000	80.009	151.6450
9380.000000	79.439	174.7170
9500.000000	79.021	-163.4342
9620.000000	78.702	-141.0951
9750.000000	78.460	-116.3999
9880.000000	78.317	-91.2684
10000.000000	78.266	-67.7283
10150.000000	78.298	-37.9703
10300.000000	78.412	-7.9291
10440.000000	78.577	20.3662
10600.000000	78.825	53.0367
10750.000000	79.113	84.0494
10900.000000	79.452	115.2849
11060.000000	79.853	148.6752
11200.000000	80.224	178.0994
11380.000000	80.722	-143.7413
11500.000000	81.063	-118.1676
11720.000000	81.711	-70.8174
11800.000000	81.954	-53.3533
12060.000000	82.790	4.5122
12200.000000	83.275	36.4138
12410.000000	84.081	85.5879
12500.000000	84.468	107.3870
12650.000000	85.185	144.9932
12800.000000	85.993	-175.9719
13150.000000	88.029	-91.4651
13200.000000	88.295	-81.6276
13400.000000	89.140	-48.6227
13600.000000	89.420	-22.8838
13800.000000	88.955	0.6538
14000.000000	87.784	27.3307
14300.000000	85.264	83.6592
14500.000000	83.504	137.9750
14750.000000	81.579	-138.2665
15000.000000	80.095	-53.3308
15250.000000	79.017	29.2032
15500.000000	78.240	112.4670
15750.000000	77.711	-164.1816
16000.000000	77.444	-79.9243
16250.000000	77.410	2.9592
16500.000000	77.452	78.1015
16750.000000	77.342	143.9014
17000.000000	76.906	-155.5796
17250.000000	76.106	-93.7482
17500.000000	75.045	-24.4009
17750.000000	73.917	63.0090
18000.000000	72.940	176.1295
18250.000000	72.250	-77.9847
18500.000000	71.831	17.9910
18750.000000	71.570	108.7787
19000.000000	71.347	-166.5338
19250.000000	71.063	-87.2401
19500.000000	70.670	29.5394
19750.000000	70.228	130.9890
20000.000000	69.927	158.2930
