* Measurement data measured by REW V5.31.3
* Source: Microphone (6- USB Sound Device        ), MICROPHONE (Master Volume), L, volume: 0.700
* Format: 256k Log Swept Sine, 1 sweep at -12.0 dBFS with no timing reference
* Dated: 09-Jun-2025 09:48:23
* REW Settings:
*  C-weighting compensation: Off
*  Target level: 75.0 dB
* Note: 
* Measurement: Elec
* Smoothing: 1/12 octave
* Frequency Step: 1/48 octave
* Start Frequency: 20.300 Hz
*
* Freq(Hz)	SPL(dB)	Phase(degrees)
20.299999	94.303	139.1531
20.600000	94.316	138.2623
20.900000	94.328	137.1373
21.200001	94.336	135.9300
21.400000	94.339	135.1128
21.799999	94.343	133.4837
22.000000	94.345	132.6783
22.400000	94.351	131.0910
22.700001	94.358	129.9209
23.000000	94.365	128.7672
23.299999	94.371	127.6286
23.600000	94.377	126.5039
24.000000	94.379	125.0225
24.299999	94.379	123.9211
24.700001	94.378	122.4569
25.000000	94.379	121.3564
25.400000	94.383	119.8801
25.799999	94.389	118.3940
26.200001	94.396	116.9058
26.500000	94.399	115.7958
26.900000	94.400	114.3341
27.200001	94.398	113.2553
27.600000	94.392	111.8392
28.000000	94.383	110.4403
28.500000	94.369	108.6966
29.000000	94.353	106.9434
29.500000	94.336	105.1857
30.000000	94.321	103.4451
30.400000	94.311	102.0764
30.700001	94.305	101.0633
31.100000	94.298	99.7222
31.500000	94.293	98.3805
32.000000	94.286	96.6931
32.500000	94.274	95.0069
33.000000	94.258	93.3498
33.500000	94.240	91.7363
34.000000	94.226	90.1498
34.500000	94.213	88.5574
35.000000	94.197	86.9408
35.500000	94.173	85.3117
36.000000	94.146	83.6972
36.500000	94.122	82.1130
37.000000	94.105	80.5523
37.500000	94.093	78.9959
38.200001	94.070	76.8013
38.700001	94.039	75.2267
39.500000	93.964	72.7174
40.000000	93.913	71.1511
40.599998	93.861	69.2511
41.200001	93.826	67.3218
41.799999	93.803	65.3984
42.500000	93.777	63.2319
43.099998	93.746	61.4560
43.700001	93.706	59.7169
44.400002	93.652	57.6863
45.000000	93.605	55.9352
45.500000	93.571	54.4678
46.200001	93.527	52.3934
46.799999	93.486	50.6025
47.500000	93.430	48.5258
48.200001	93.377	46.4663
48.700001	93.345	44.9896
49.400002	93.303	42.9115
50.000000	93.259	41.1489
50.799999	93.177	38.8643
51.500000	93.091	36.9061
52.200001	93.001	34.9477
53.000000	92.906	32.6986
53.799999	92.820	30.4459
54.500000	92.746	28.4678
55.200001	92.666	26.4809
56.000000	92.565	24.2244
57.000000	92.433	21.4947
58.000000	92.307	18.8683
59.000000	92.178	16.2305
60.000000	92.041	13.5201
60.799999	91.929	11.3377
61.500000	91.831	9.4547
62.200001	91.734	7.6171
63.000000	91.621	5.5815
64.000000	91.484	3.1150
65.000000	91.352	0.7029
66.000000	91.219	-1.6797
67.000000	91.072	-4.0742
68.000000	90.908	-6.4819
69.000000	90.736	-8.8344
70.000000	90.567	-11.0815
71.000000	90.403	-13.2392
72.000000	90.242	-15.3770
73.000000	90.085	-17.5721
74.000000	89.928	-19.8347
75.000000	89.768	-22.0963
76.199997	89.569	-24.6982
77.500000	89.343	-27.3303
78.800003	89.116	-29.8233
80.000000	88.909	-32.0770
81.199997	88.704	-34.3326
82.500000	88.485	-36.7608
83.800003	88.274	-39.1356
85.000000	88.082	-41.2679
86.199997	87.882	-43.3676
87.500000	87.656	-45.6446
88.500000	87.479	-47.3866
90.000000	87.219	-49.8866
91.199997	87.026	-51.7323
92.500000	86.829	-53.6275
93.800003	86.637	-55.4973
95.000000	86.458	-57.2432
96.199997	86.274	-59.0410
97.500000	86.069	-61.0270
98.800003	85.863	-62.9603
100.000000	85.676	-64.6186
101.500000	85.451	-66.5093
103.000000	85.236	-68.2971
104.400002	85.036	-69.9509
106.000000	84.806	-71.8146
107.500000	84.593	-73.5063
109.000000	84.388	-75.1567
110.599998	84.180	-76.8814
112.000000	84.009	-78.3726
113.800003	83.804	-80.2748
115.000000	83.676	-81.5415
117.199997	83.452	-83.8581
118.000000	83.375	-84.6952
120.599998	83.143	-87.3712
122.000000	83.032	-88.7472
124.099998	82.884	-90.7527
125.000000	82.824	-91.5862
126.500000	82.725	-92.9132
128.000000	82.623	-94.1815
131.500000	82.390	-97.2003
132.000000	82.362	-97.6569
134.000000	82.270	-99.5290
136.000000	82.184	-101.4479
138.000000	82.086	-103.4375
140.000000	81.990	-105.4299
143.000000	81.859	-108.2389
145.000000	81.768	-110.0989
147.500000	81.674	-112.4477
150.000000	81.617	-114.7631
152.500000	81.576	-117.0789
155.000000	81.541	-119.4639
157.500000	81.518	-121.9313
160.000000	81.500	-124.4517
162.500000	81.484	-127.1044
165.000000	81.469	-129.8256
167.500000	81.445	-132.5161
170.000000	81.418	-135.1761
172.500000	81.398	-137.7939
175.000000	81.387	-140.3677
177.500000	81.382	-142.9232
180.000000	81.374	-145.5102
182.500000	81.352	-148.1542
185.000000	81.313	-150.8375
187.500000	81.271	-153.5274
190.000000	81.235	-156.1948
192.500000	81.206	-158.8691
195.000000	81.186	-161.5567
197.500000	81.181	-164.2294
200.000000	81.194	-166.8576
203.000000	81.224	-169.9758
206.000000	81.267	-173.1785
209.000000	81.329	-176.5034
212.000000	81.394	-179.8371
214.000000	81.426	177.9651
218.000000	81.461	173.6063
220.000000	81.470	171.4476
224.000000	81.482	167.1534
227.000000	81.488	163.9463
230.000000	81.501	160.7542
233.000000	81.532	157.5783
236.000000	81.577	154.3884
240.000000	81.645	150.0143
243.000000	81.690	146.6339
247.000000	81.739	142.0495
250.000000	81.769	138.5776
254.000000	81.809	133.8983
258.000000	81.855	129.1726
262.000000	81.900	124.5176
265.000000	81.928	121.1019
269.000000	81.962	116.6112
272.000000	81.983	113.2672
276.000000	82.011	108.7954
280.000000	82.044	104.3047
285.000000	82.090	98.7298
290.000000	82.131	93.1866
295.000000	82.165	87.6095
300.000000	82.198	81.9536
304.000000	82.227	77.4018
307.000000	82.252	74.0008
311.000000	82.290	69.4803
315.000000	82.328	64.9735
320.000000	82.365	59.3756
325.000000	82.391	53.8282
330.000000	82.421	48.2963
335.000000	82.454	42.7036
340.000000	82.490	37.0792
345.000000	82.533	31.5085
350.000000	82.577	25.9863
355.000000	82.611	20.4520
360.000000	82.632	14.8912
365.000000	82.641	9.3899
370.000000	82.652	4.0102
375.000000	82.673	-1.3162
382.000000	82.705	-8.9117
387.000000	82.725	-14.4034
395.000000	82.758	-23.0394
400.000000	82.780	-28.3585
406.000000	82.798	-34.7717
412.000000	82.802	-41.2405
418.000000	82.802	-47.7428
425.000000	82.813	-55.2469
431.000000	82.830	-61.5786
437.000000	82.849	-67.8812
444.000000	82.872	-75.2654
450.000000	82.889	-81.6015
455.000000	82.896	-86.8632
462.000000	82.896	-94.2180
468.000000	82.887	-100.4966
475.000000	82.869	-107.7361
482.000000	82.851	-114.9230
487.000000	82.842	-120.0742
494.000000	82.834	-127.2610
500.000000	82.829	-133.3331
508.000000	82.831	-141.2929
515.000000	82.833	-148.1879
522.000000	82.831	-155.0834
530.000000	82.824	-162.9698
538.000000	82.813	-170.8481
545.000000	82.800	-177.7288
552.000000	82.787	175.4358
560.000000	82.770	167.6837
570.000000	82.749	158.0307
580.000000	82.729	148.4196
590.000000	82.702	138.9120
600.000000	82.666	129.5559
608.000000	82.633	122.1682
615.000000	82.604	115.7223
622.000000	82.578	109.2453
630.000000	82.548	101.8145
640.000000	82.508	92.6047
650.000000	82.475	83.5292
660.000000	82.455	74.5857
670.000000	82.441	65.6982
680.000000	82.421	56.8235
690.000000	82.382	48.0255
700.000000	82.335	39.3268
710.000000	82.299	30.7820
720.000000	82.279	22.3756
730.000000	82.260	13.9418
740.000000	82.237	5.4005
750.000000	82.211	-3.1996
762.000000	82.188	-13.4359
775.000000	82.175	-24.2824
788.000000	82.162	-34.9772
800.000000	82.146	-44.7939
812.000000	82.127	-54.4678
825.000000	82.102	-64.7799
838.000000	82.077	-75.0425
850.000000	82.058	-84.4952
862.000000	82.049	-93.8963
875.000000	82.053	-103.9850
885.000000	82.065	-111.6588
900.000000	82.087	-123.1045
912.000000	82.103	-132.2854
925.000000	82.121	-142.2273
938.000000	82.147	-152.1049
950.000000	82.182	-161.1731
962.000000	82.227	-170.1917
975.000000	82.280	-179.8625
988.000000	82.331	170.5569
1000.000000	82.376	161.7457
1015.000000	82.430	150.7646
1030.000000	82.483	139.7556
1044.000000	82.542	129.4376
1060.000000	82.626	117.6866
1075.000000	82.712	106.7437
1090.000000	82.797	95.8362
1106.000000	82.895	84.2485
1120.000000	82.981	74.2046
1138.000000	83.084	61.4147
1150.000000	83.150	52.9290
1172.000000	83.275	37.4445
1180.000000	83.322	31.8264
1206.000000	83.490	13.5449
1220.000000	83.589	3.6948
1241.000000	83.753	-11.0337
1250.000000	83.829	-17.3110
1265.000000	83.963	-27.7059
1280.000000	84.099	-38.0116
1315.000000	84.392	-61.7953
1320.000000	84.427	-65.1704
1340.000000	84.544	-78.6093
1360.000000	84.616	-91.9651
1380.000000	84.656	-105.2817
1400.000000	84.687	-118.5448
1430.000000	84.751	-138.2559
1450.000000	84.817	-151.2720
1475.000000	84.931	-167.3438
1500.000000	85.083	176.7141
1525.000000	85.260	160.8217
1550.000000	85.443	145.0244
1575.000000	85.629	129.2883
1600.000000	85.829	113.6740
1625.000000	86.041	98.2472
1650.000000	86.257	82.9553
1675.000000	86.467	67.6609
1700.000000	86.677	52.3866
1725.000000	86.897	37.1912
1750.000000	87.130	22.0465
1775.000000	87.366	6.9686
1800.000000	87.597	-8.0226
1825.000000	87.823	-22.9536
1850.000000	88.047	-37.8671
1875.000000	88.270	-52.7852
1900.000000	88.486	-67.6726
1925.000000	88.693	-82.5018
1950.000000	88.887	-97.2808
1975.000000	89.076	-112.0348
2000.000000	89.269	-126.7563
2030.000000	89.505	-144.3381
2060.000000	89.728	-161.8293
2090.000000	89.928	-179.2355
2120.000000	90.112	163.4684
2140.000000	90.226	152.0092
2180.000000	90.442	129.2637
2200.000000	90.545	117.9408
2240.000000	90.745	95.3514
2270.000000	90.883	78.5767
2300.000000	91.005	61.9343
2330.000000	91.114	45.3856
2360.000000	91.215	28.9702
2400.000000	91.338	7.3135
2430.000000	91.418	-8.7777
2470.000000	91.505	-30.0673
2500.000000	91.560	-45.9077
2540.000000	91.626	-66.8143
2580.000000	91.680	-87.4304
2620.000000	91.721	-107.7734
2650.000000	91.748	-122.8652
2690.000000	91.784	-142.8032
2720.000000	91.816	-157.6467
2760.000000	91.862	-177.2847
2800.000000	91.903	163.2734
2850.000000	91.936	139.1763
2900.000000	91.951	115.3125
2950.000000	91.935	91.6997
3000.000000	91.888	68.3772
3040.000000	91.825	49.9197
3070.000000	91.764	36.2517
3110.000000	91.667	18.3462
3150.000000	91.560	0.7617
3200.000000	91.411	-20.8877
3250.000000	91.255	-42.1941
3300.000000	91.097	-63.1128
3350.000000	90.934	-83.5959
3400.000000	90.762	-103.6567
3450.000000	90.584	-123.3579
3500.000000	90.406	-142.6948
3550.000000	90.229	-161.6455
3600.000000	90.058	179.7874
3650.000000	89.908	161.6096
3700.000000	89.802	143.8162
3750.000000	89.743	126.3489
3820.000000	89.707	102.2339
3870.000000	89.698	85.1836
3950.000000	89.711	58.2786
4000.000000	89.740	41.7407
4060.000000	89.791	22.1853
4120.000000	89.853	2.9155
4180.000000	89.927	-16.0784
4250.000000	90.033	-37.9802
4310.000000	90.149	-56.6125
4370.000000	90.291	-75.1301
4440.000000	90.495	-96.6333
4500.000000	90.708	-115.0161
4550.000000	90.908	-130.3308
4620.000000	91.205	-151.8267
4680.000000	91.460	-170.3296
4750.000000	91.737	167.9717
4820.000000	91.960	146.1309
4870.000000	92.068	130.4805
4940.000000	92.128	108.6404
5000.000000	92.081	90.1060
5080.000000	91.863	65.8394
5150.000000	91.527	45.1726
5220.000000	91.082	25.2588
5300.000000	90.481	3.6482
5380.000000	89.840	-16.7014
5450.000000	89.288	-33.5576
5520.000000	88.776	-49.6338
5600.000000	88.263	-67.1934
5700.000000	87.738	-88.1655
5800.000000	87.317	-108.3000
5900.000000	86.977	-127.7341
6000.000000	86.706	-146.4902
6080.000000	86.523	-161.0044
6150.000000	86.382	-173.3486
6220.000000	86.258	174.6409
6300.000000	86.143	161.3103
6400.000000	86.055	145.1782
6500.000000	86.041	129.5554
6600.000000	86.099	114.4026
6700.000000	86.228	99.6829
6800.000000	86.437	85.3496
6900.000000	86.739	71.3352
7000.000000	87.149	57.5222
7100.000000	87.684	43.7185
7200.000000	88.353	29.7036
7300.000000	89.148	15.2896
7400.000000	90.038	0.2402
7500.000000	90.965	-15.7104
7620.000000	91.994	-36.1743
7750.000000	92.782	-59.7588
7880.000000	93.018	-84.0781
8000.000000	92.667	-106.0696
8120.000000	91.815	-126.4802
8250.000000	90.478	-145.9412
8380.000000	88.921	-162.3730
8500.000000	87.460	-175.0044
8620.000000	86.088	174.4661
8750.000000	84.762	165.0044
8850.000000	83.864	158.8740
9000.000000	82.708	151.2405
9120.000000	81.930	146.2737
9250.000000	81.210	141.8665
9380.000000	80.604	138.3545
9500.000000	80.144	135.7939
9620.000000	79.779	133.8057
9750.000000	79.489	132.2378
9880.000000	79.300	131.1897
10000.000000	79.206	130.6250
10150.000000	79.183	130.4211
10300.000000	79.247	130.7141
10440.000000	79.372	131.3975
10600.000000	79.578	132.6472
10750.000000	79.830	134.2837
10900.000000	80.146	136.3652
11060.000000	80.547	139.0286
11200.000000	80.943	141.7080
11380.000000	81.511	145.6123
11500.000000	81.927	148.5051
11720.000000	82.781	154.4656
11800.000000	83.127	156.8398
12060.000000	84.394	165.0913
12200.000000	85.164	169.7361
12410.000000	86.432	176.7812
12500.000000	87.013	179.7603
12650.000000	88.028	-175.5005
12800.000000	89.085	-171.3320
13150.000000	91.511	-166.3860
13200.000000	91.815	-166.4524
13400.000000	92.793	-168.8391
13600.000000	93.185	-173.8652
13800.000000	92.806	-179.3403
14000.000000	91.663	177.5608
14300.000000	89.000	-178.2622
14500.000000	87.019	-168.4868
14750.000000	84.721	-149.0371
15000.000000	82.819	-123.6133
15250.000000	81.335	-94.4207
15500.000000	80.195	-63.1416
15750.000000	79.351	-31.0488
16000.000000	78.815	0.5776
16250.000000	78.549	30.3577
16500.000000	78.388	57.3748
16750.000000	78.104	81.8342
17000.000000	77.519	105.2502
17250.000000	76.578	130.1023
17500.000000	75.371	159.2004
17750.000000	74.103	-164.8276
18000.000000	73.011	-120.8376
18250.000000	72.249	-71.7874
18500.000000	71.807	-23.7151
18750.000000	71.547	20.7485
19000.000000	71.330	62.9050
19250.000000	71.061	104.7327
19500.000000	70.696	146.0159
19750.000000	70.289	-179.1631
20000.000000	70.012	-160.0803
