* Measurement data measured by REW V5.31.3
* Source: Microphone (6- USB Sound Device        ), MICROPHONE (Master Volume), L, volume: 0.700
* Format: 256k Log Swept Sine, 1 sweep at -12.0 dBFS with no timing reference
* Dated: 09-Jun-2025 09:54:12
* REW Settings:
*  C-weighting compensation: Off
*  Target level: 75.0 dB
* Note: 
* Measurement: Pop ANC off L
* Smoothing: 1/12 octave
* Frequency Step: 1/48 octave
* Start Frequency: 20.300 Hz
*
* Freq(Hz)	SPL(dB)	Phase(degrees)
20.299999	94.492	153.9439
20.600000	94.501	153.1968
20.900000	94.513	152.2610
21.200001	94.526	151.2593
21.400000	94.535	150.5779
21.799999	94.556	149.2014
22.000000	94.568	148.5110
22.400000	94.592	147.1391
22.700001	94.610	146.1297
23.000000	94.626	145.1464
23.299999	94.640	144.1928
23.600000	94.652	143.2668
24.000000	94.665	142.0622
24.299999	94.675	141.1682
24.700001	94.687	139.9704
25.000000	94.698	139.0600
25.400000	94.714	137.8284
25.799999	94.731	136.5848
26.200001	94.749	135.3443
26.500000	94.762	134.4242
26.900000	94.778	133.2174
27.200001	94.788	132.3269
27.600000	94.798	131.1542
28.000000	94.802	129.9920
28.500000	94.801	128.5484
29.000000	94.795	127.1158
29.500000	94.789	125.6971
30.000000	94.789	124.2906
30.400000	94.793	123.1739
30.700001	94.797	122.3437
31.100000	94.804	121.2518
31.500000	94.810	120.1814
32.000000	94.819	118.8678
32.500000	94.830	117.5543
33.000000	94.839	116.2068
33.500000	94.844	114.8134
34.000000	94.842	113.3972
34.500000	94.834	111.9996
35.000000	94.826	110.6494
35.500000	94.819	109.3461
36.000000	94.816	108.0690
36.500000	94.815	106.7993
37.000000	94.811	105.5318
37.500000	94.804	104.2698
38.200001	94.788	102.5088
38.700001	94.773	101.2419
39.500000	94.749	99.1853
40.000000	94.734	97.8923
40.599998	94.719	96.3506
41.200001	94.710	94.8266
41.799999	94.703	93.3194
42.500000	94.695	91.5723
43.099998	94.684	90.0670
43.700001	94.671	88.5420
44.400002	94.654	86.7552
45.000000	94.640	85.2518
45.500000	94.629	84.0307
46.200001	94.609	82.3519
46.799999	94.585	80.9150
47.500000	94.551	79.2204
48.200001	94.518	77.4964
48.700001	94.498	76.2484
49.400002	94.469	74.5028
50.000000	94.438	73.0413
50.799999	94.387	71.1656
51.500000	94.339	69.5658
52.200001	94.290	67.9741
53.000000	94.232	66.1514
53.799999	94.170	64.3038
54.500000	94.113	62.6492
55.200001	94.058	60.9750
56.000000	94.004	59.0803
57.000000	93.944	56.7815
58.000000	93.872	54.5689
59.000000	93.783	52.3813
60.000000	93.688	50.1455
60.799999	93.611	48.3603
61.500000	93.543	46.8349
62.200001	93.475	45.3428
63.000000	93.397	43.6708
64.000000	93.305	41.6132
65.000000	93.218	39.5485
66.000000	93.124	37.4593
67.000000	93.013	35.3610
68.000000	92.889	33.2811
69.000000	92.759	31.2504
70.000000	92.627	29.2964
71.000000	92.502	27.4227
72.000000	92.385	25.5798
73.000000	92.273	23.7298
74.000000	92.161	21.8824
75.000000	92.045	20.0540
76.199997	91.896	17.9025
77.500000	91.715	15.6597
78.800003	91.530	13.5515
80.000000	91.367	11.6882
81.199997	91.210	9.8028
82.500000	91.036	7.7190
83.800003	90.855	5.6933
85.000000	90.689	3.9100
86.199997	90.531	2.1756
87.500000	90.369	0.3343
88.500000	90.250	-1.0702
90.000000	90.071	-3.1708
91.199997	89.923	-4.8036
92.500000	89.757	-6.4955
93.800003	89.586	-8.1465
95.000000	89.427	-9.6672
96.199997	89.272	-11.1819
97.500000	89.114	-12.8035
98.800003	88.965	-14.3722
100.000000	88.831	-15.7402
101.500000	88.663	-17.3467
103.000000	88.491	-18.8837
104.400002	88.324	-20.2578
106.000000	88.135	-21.7724
107.500000	87.971	-23.1728
109.000000	87.824	-24.5119
110.599998	87.676	-25.8823
112.000000	87.553	-27.0976
113.800003	87.396	-28.7132
115.000000	87.290	-29.8115
117.199997	87.100	-31.8404
118.000000	87.035	-32.5703
120.599998	86.840	-34.8499
122.000000	86.745	-35.9951
124.099998	86.606	-37.5984
125.000000	86.547	-38.2637
126.500000	86.454	-39.3844
128.000000	86.371	-40.5736
131.500000	86.212	-43.6601
132.000000	86.190	-44.1096
134.000000	86.103	-45.8543
136.000000	86.008	-47.4618
138.000000	85.901	-48.9428
140.000000	85.791	-50.3934
143.000000	85.650	-52.6438
145.000000	85.572	-54.1115
147.500000	85.473	-55.8823
150.000000	85.363	-57.7855
152.500000	85.267	-59.8489
155.000000	85.195	-61.9387
157.500000	85.125	-63.9368
160.000000	85.051	-65.8847
162.500000	84.992	-67.7971
165.000000	84.951	-69.6643
167.500000	84.914	-71.5590
170.000000	84.869	-73.4882
172.500000	84.813	-75.3982
175.000000	84.749	-77.3458
177.500000	84.685	-79.3556
180.000000	84.626	-81.3436
182.500000	84.571	-83.2563
185.000000	84.512	-85.1029
187.500000	84.446	-86.8791
190.000000	84.371	-88.6047
192.500000	84.297	-90.3435
195.000000	84.238	-92.0849
197.500000	84.202	-93.8096
200.000000	84.189	-95.5363
203.000000	84.193	-97.6074
206.000000	84.210	-99.7037
209.000000	84.237	-101.8391
212.000000	84.262	-104.0171
214.000000	84.271	-105.5180
218.000000	84.270	-108.5987
220.000000	84.267	-110.1243
224.000000	84.276	-113.0446
227.000000	84.294	-115.1321
230.000000	84.320	-117.2027
233.000000	84.350	-119.3038
236.000000	84.384	-121.4659
240.000000	84.424	-124.5020
243.000000	84.448	-126.8718
247.000000	84.475	-130.0539
250.000000	84.498	-132.4258
254.000000	84.537	-135.5560
258.000000	84.576	-138.6673
262.000000	84.614	-141.7848
265.000000	84.643	-144.1323
269.000000	84.679	-147.2805
272.000000	84.702	-149.6350
276.000000	84.727	-152.7169
280.000000	84.752	-155.7516
285.000000	84.792	-159.5930
290.000000	84.832	-163.4846
295.000000	84.877	-167.3713
300.000000	84.927	-171.2389
304.000000	84.966	-174.3366
307.000000	84.993	-176.6686
311.000000	85.026	-179.7918
315.000000	85.052	177.0728
320.000000	85.079	173.1420
325.000000	85.109	169.2110
330.000000	85.141	165.2807
335.000000	85.178	161.3564
340.000000	85.222	157.4111
345.000000	85.259	153.4751
350.000000	85.279	149.5817
355.000000	85.282	145.7335
360.000000	85.282	141.9391
365.000000	85.293	138.1526
370.000000	85.312	134.3215
375.000000	85.338	130.4608
382.000000	85.376	125.1070
387.000000	85.399	121.3557
395.000000	85.417	115.4143
400.000000	85.417	111.7443
406.000000	85.411	107.4019
412.000000	85.404	103.0973
418.000000	85.392	98.8017
425.000000	85.374	93.7059
431.000000	85.363	89.1896
437.000000	85.356	84.6290
444.000000	85.351	79.4026
450.000000	85.357	75.0781
455.000000	85.362	71.5831
462.000000	85.364	66.7114
468.000000	85.359	62.4924
475.000000	85.343	57.6143
482.000000	85.314	52.8901
487.000000	85.288	49.5837
494.000000	85.250	44.9592
500.000000	85.223	40.9853
508.000000	85.195	35.7141
515.000000	85.172	31.1191
522.000000	85.145	26.5345
530.000000	85.112	21.3348
538.000000	85.072	16.1709
545.000000	85.031	11.6785
552.000000	84.988	7.2309
560.000000	84.945	2.2269
570.000000	84.900	-3.9153
580.000000	84.852	-10.0024
590.000000	84.795	-16.0527
600.000000	84.739	-21.9989
608.000000	84.700	-26.6824
615.000000	84.668	-30.7495
622.000000	84.638	-34.8084
630.000000	84.604	-39.4390
640.000000	84.556	-45.1547
650.000000	84.504	-50.8073
660.000000	84.456	-56.4247
670.000000	84.408	-61.9413
680.000000	84.351	-67.3259
690.000000	84.286	-72.6810
700.000000	84.217	-77.9872
710.000000	84.145	-83.1689
720.000000	84.080	-88.3044
730.000000	84.033	-93.4381
740.000000	84.002	-98.5536
750.000000	83.972	-103.5955
762.000000	83.922	-109.4899
775.000000	83.854	-115.7623
788.000000	83.788	-121.9424
800.000000	83.730	-127.5791
812.000000	83.678	-133.1611
825.000000	83.631	-139.1124
838.000000	83.586	-144.9562
850.000000	83.544	-150.2726
862.000000	83.504	-155.5049
875.000000	83.464	-161.1114
885.000000	83.439	-165.4015
900.000000	83.414	-171.7922
912.000000	83.408	-176.8339
925.000000	83.411	177.7962
938.000000	83.409	172.5331
950.000000	83.405	167.7468
962.000000	83.406	162.9556
975.000000	83.417	157.7208
988.000000	83.437	152.4914
1000.000000	83.455	147.7453
1015.000000	83.479	141.9431
1030.000000	83.507	136.1989
1044.000000	83.540	130.8666
1060.000000	83.581	124.8091
1075.000000	83.621	119.1223
1090.000000	83.661	113.4657
1106.000000	83.706	107.5122
1120.000000	83.747	102.3658
1138.000000	83.801	95.8322
1150.000000	83.838	91.5084
1172.000000	83.911	83.6242
1180.000000	83.941	80.7847
1206.000000	84.051	71.6758
1220.000000	84.115	66.7908
1241.000000	84.224	59.4991
1250.000000	84.280	56.4194
1265.000000	84.386	51.3673
1280.000000	84.498	46.3997
1315.000000	84.724	35.0254
1320.000000	84.749	33.4208
1340.000000	84.821	27.0544
1360.000000	84.850	20.7791
1380.000000	84.847	14.5887
1400.000000	84.837	8.4681
1430.000000	84.850	-0.5590
1450.000000	84.887	-6.4835
1475.000000	84.970	-13.8004
1500.000000	85.096	-20.9127
1525.000000	85.261	-27.8022
1550.000000	85.450	-34.5470
1575.000000	85.641	-41.1918
1600.000000	85.832	-47.7907
1625.000000	86.030	-54.3397
1650.000000	86.240	-60.8139
1675.000000	86.463	-67.2617
1700.000000	86.695	-73.7059
1725.000000	86.925	-80.1643
1750.000000	87.151	-86.6312
1775.000000	87.375	-93.1086
1800.000000	87.599	-99.5427
1825.000000	87.818	-105.8901
1850.000000	88.030	-112.1660
1875.000000	88.238	-118.3965
1900.000000	88.441	-124.5991
1925.000000	88.639	-130.7523
1950.000000	88.827	-136.8108
1975.000000	89.006	-142.7629
2000.000000	89.180	-148.6460
2030.000000	89.389	-155.6875
2060.000000	89.599	-162.6949
2090.000000	89.807	-169.6381
2120.000000	90.012	-176.5176
2140.000000	90.140	178.9471
2180.000000	90.368	170.0068
2200.000000	90.473	165.5881
2240.000000	90.677	156.8983
2270.000000	90.820	150.5452
2300.000000	90.956	144.2891
2330.000000	91.083	138.1350
2360.000000	91.201	132.0823
2400.000000	91.346	124.1987
2430.000000	91.447	118.4493
2470.000000	91.570	110.9895
2500.000000	91.653	105.5627
2540.000000	91.747	98.5696
2580.000000	91.828	91.8492
2620.000000	91.911	85.3966
2650.000000	91.986	80.7261
2690.000000	92.106	74.6570
2720.000000	92.207	70.1711
2760.000000	92.346	64.2565
2800.000000	92.486	58.4288
2850.000000	92.650	51.2366
2900.000000	92.790	44.1852
2950.000000	92.892	37.3472
3000.000000	92.952	30.8086
3040.000000	92.978	25.7604
3070.000000	92.988	22.0573
3110.000000	92.990	17.2432
3150.000000	92.977	12.6088
3200.000000	92.946	7.1287
3250.000000	92.897	2.0023
3300.000000	92.831	-2.7917
3350.000000	92.745	-7.2438
3400.000000	92.642	-11.3308
3450.000000	92.521	-15.0408
3500.000000	92.384	-18.3832
3550.000000	92.233	-21.3434
3600.000000	92.078	-23.8757
3650.000000	91.930	-25.9391
3700.000000	91.809	-27.5828
3750.000000	91.728	-28.9528
3820.000000	91.671	-30.5417
3870.000000	91.649	-31.4025
3950.000000	91.617	-32.2783
4000.000000	91.601	-32.4990
4060.000000	91.603	-32.3833
4120.000000	91.630	-31.9194
4180.000000	91.676	-31.2024
4250.000000	91.750	-30.0887
4310.000000	91.830	-28.9546
4370.000000	91.934	-27.7063
4440.000000	92.101	-26.1610
4500.000000	92.286	-24.8210
4550.000000	92.466	-23.7390
4620.000000	92.738	-22.3489
4680.000000	92.973	-21.3289
4750.000000	93.223	-20.3903
4820.000000	93.419	-19.7465
4870.000000	93.508	-19.4500
4940.000000	93.541	-19.1508
5000.000000	93.470	-18.8632
5080.000000	93.216	-18.1613
5150.000000	92.841	-16.9244
5220.000000	92.338	-14.8130
5300.000000	91.652	-11.0597
5380.000000	90.906	-5.6827
5450.000000	90.249	0.3470
5520.000000	89.627	7.4795
5600.000000	88.995	16.7111
5700.000000	88.344	29.4348
5800.000000	87.843	43.0408
5900.000000	87.465	57.2664
6000.000000	87.178	72.0120
6080.000000	86.991	84.1702
6150.000000	86.851	95.1050
6220.000000	86.731	106.3518
6300.000000	86.625	119.6079
6400.000000	86.545	136.7407
6500.000000	86.531	154.3774
6600.000000	86.586	172.4318
6700.000000	86.715	-169.1007
6800.000000	86.927	-150.1985
6900.000000	87.232	-130.8772
7000.000000	87.641	-111.2504
7100.000000	88.172	-91.5359
7200.000000	88.835	-71.9987
7300.000000	89.623	-53.0763
7400.000000	90.493	-35.3897
7500.000000	91.377	-19.5088
7620.000000	92.323	-3.2474
7750.000000	92.994	11.2275
7880.000000	93.095	23.9969
8000.000000	92.620	36.2659
8120.000000	91.660	50.7676
8250.000000	90.232	70.4138
8380.000000	88.604	94.7795
8500.000000	87.090	121.2500
8620.000000	85.673	150.7971
8750.000000	84.308	-174.7306
8850.000000	83.385	-147.0328
9000.000000	82.195	-104.0488
9120.000000	81.397	-68.5642
9250.000000	80.669	-29.2446
9380.000000	80.064	10.6549
9500.000000	79.606	47.9762
9620.000000	79.248	85.9536
9750.000000	78.967	127.5555
9880.000000	78.781	169.3461
10000.000000	78.679	-151.7821
10150.000000	78.641	-102.7599
10300.000000	78.688	-53.4252
10440.000000	78.794	-7.1861
10600.000000	78.973	45.8676
10750.000000	79.195	96.1534
10900.000000	79.471	146.9816
11060.000000	79.827	-158.6454
11200.000000	80.187	-110.5490
11380.000000	80.713	-48.1550
11500.000000	81.100	-6.6385
11720.000000	81.905	70.4927
11800.000000	82.232	98.9132
12060.000000	83.419	-167.8105
12200.000000	84.141	-117.2744
12410.000000	85.339	-41.5651
12500.000000	85.892	-9.0328
12650.000000	86.858	46.0386
12800.000000	87.866	103.7010
13150.000000	90.128	-125.2964
13200.000000	90.400	-110.4961
13400.000000	91.214	-61.9503
13600.000000	91.387	-24.0953
13800.000000	90.759	10.5740
14000.000000	89.390	48.4584
14300.000000	86.481	126.9884
14500.000000	84.378	-141.8088
14750.000000	81.966	-5.5938
15000.000000	80.029	106.8114
15250.000000	78.604	-136.9376
15500.000000	77.611	-18.8652
15750.000000	76.992	99.7090
16000.000000	76.722	-142.8533
16250.000000	76.720	-25.9778
16500.000000	76.774	81.3052
16750.000000	76.645	172.2922
17000.000000	76.170	-105.9458
17250.000000	75.317	-22.7834
17500.000000	74.198	73.6270
17750.000000	73.031	-140.0747
18000.000000	72.053	9.6006
18250.000000	71.406	126.0913
18500.000000	71.077	-87.7419
18750.000000	70.939	24.0364
19000.000000	70.840	148.3423
19250.000000	70.675	-108.5991
19500.000000	70.401	-87.7183
19750.000000	70.064	-141.2029
20000.000000	69.825	-126.7893
