* Measurement data measured by REW V5.31.3
* Source: Microphone (6- USB Sound Device        ), MICROPHONE (Master Volume), L, volume: 0.700
* Format: 256k Log Swept Sine, 1 sweep at -12.0 dBFS with no timing reference
* Dated: 09-Jun-2025 09:54:27
* REW Settings:
*  C-weighting compensation: Off
*  Target level: 75.0 dB
* Note: 
* Measurement: Pop ANC off R
* Smoothing: 1/12 octave
* Frequency Step: 1/48 octave
* Start Frequency: 20.300 Hz
*
* Freq(Hz)	SPL(dB)	Phase(degrees)
20.299999	94.453	163.4545
20.600000	94.457	162.8217
20.900000	94.459	162.0322
21.200001	94.462	161.1908
21.400000	94.466	160.6196
21.799999	94.482	159.4604
22.000000	94.495	158.8709
22.400000	94.530	157.6693
22.700001	94.561	156.7521
23.000000	94.593	155.8313
23.299999	94.621	154.9198
23.600000	94.645	154.0306
24.000000	94.668	152.8919
24.299999	94.680	152.0710
24.700001	94.695	151.0009
25.000000	94.705	150.1996
25.400000	94.719	149.1150
25.799999	94.731	148.0125
26.200001	94.740	146.9102
26.500000	94.746	146.0958
26.900000	94.752	145.0316
27.200001	94.757	144.2453
27.600000	94.763	143.2022
28.000000	94.767	142.1618
28.500000	94.767	140.8849
29.000000	94.763	139.6683
29.500000	94.763	138.5178
30.000000	94.772	137.3954
30.400000	94.781	136.4868
30.700001	94.786	135.7910
31.100000	94.791	134.8441
31.500000	94.793	133.8782
32.000000	94.794	132.6442
32.500000	94.796	131.3798
33.000000	94.796	130.1014
33.500000	94.793	128.8424
34.000000	94.790	127.6241
34.500000	94.790	126.4333
35.000000	94.790	125.2385
35.500000	94.786	124.0274
36.000000	94.778	122.8230
36.500000	94.767	121.6610
37.000000	94.759	120.5554
37.500000	94.757	119.4853
38.200001	94.757	117.9757
38.700001	94.752	116.8619
39.500000	94.728	115.0533
40.000000	94.709	113.9430
40.599998	94.692	112.6434
41.200001	94.685	111.3643
41.799999	94.684	110.0946
42.500000	94.680	108.6227
43.099998	94.671	107.3454
43.700001	94.657	106.0117
44.400002	94.633	104.3674
45.000000	94.605	102.9331
45.500000	94.581	101.7735
46.200001	94.550	100.2538
46.799999	94.529	99.0349
47.500000	94.507	97.6489
48.200001	94.485	96.2483
48.700001	94.471	95.2281
49.400002	94.453	93.7721
50.000000	94.435	92.5027
50.799999	94.390	90.8055
51.500000	94.328	89.3532
52.200001	94.257	87.9461
53.000000	94.186	86.3587
53.799999	94.135	84.7430
54.500000	94.095	83.2999
55.200001	94.049	81.8630
56.000000	93.986	80.2641
57.000000	93.905	78.3045
58.000000	93.826	76.3324
59.000000	93.746	74.3382
60.000000	93.664	72.2806
60.799999	93.592	70.6071
61.500000	93.525	69.1864
62.200001	93.458	67.8379
63.000000	93.384	66.3627
64.000000	93.292	64.5399
65.000000	93.188	62.7205
66.000000	93.075	60.9366
67.000000	92.963	59.1771
68.000000	92.861	57.4257
69.000000	92.762	55.7000
70.000000	92.655	54.0323
71.000000	92.536	52.4363
72.000000	92.408	50.8742
73.000000	92.276	49.3150
74.000000	92.143	47.7625
75.000000	92.014	46.2029
76.199997	91.859	44.3167
77.500000	91.678	42.3472
78.800003	91.485	40.5115
80.000000	91.311	38.8970
81.199997	91.160	37.3040
82.500000	91.015	35.5968
83.800003	90.867	33.9209
85.000000	90.719	32.3971
86.199997	90.569	30.9507
87.500000	90.409	29.5331
88.500000	90.281	28.5277
90.000000	90.078	27.0237
91.199997	89.915	25.7438
92.500000	89.738	24.3210
93.800003	89.562	22.9216
95.000000	89.405	21.6512
96.199997	89.256	20.3868
97.500000	89.102	19.0375
98.800003	88.950	17.7765
100.000000	88.809	16.7159
101.500000	88.640	15.4343
103.000000	88.478	14.1055
104.400002	88.324	12.8498
106.000000	88.147	11.5445
107.500000	87.987	10.5422
109.000000	87.832	9.6511
110.599998	87.671	8.6718
112.000000	87.536	7.7758
113.800003	87.377	6.6302
115.000000	87.278	5.8717
117.199997	87.109	4.4337
118.000000	87.053	3.9094
120.599998	86.873	2.2181
122.000000	86.778	1.2961
124.099998	86.646	-0.0175
125.000000	86.593	-0.5508
126.500000	86.507	-1.4349
128.000000	86.418	-2.3408
131.500000	86.208	-4.5071
132.000000	86.181	-4.7995
134.000000	86.083	-5.9031
136.000000	85.983	-6.9855
138.000000	85.874	-8.1289
140.000000	85.767	-9.3281
143.000000	85.622	-11.1618
145.000000	85.538	-12.3239
147.500000	85.455	-13.6784
150.000000	85.387	-15.0663
152.500000	85.310	-16.5338
155.000000	85.226	-18.0662
157.500000	85.152	-19.6301
160.000000	85.088	-21.1519
162.500000	85.030	-22.6123
165.000000	84.978	-24.0760
167.500000	84.924	-25.5727
170.000000	84.866	-27.0485
172.500000	84.807	-28.5348
175.000000	84.755	-30.0435
177.500000	84.708	-31.5214
180.000000	84.659	-32.9793
182.500000	84.599	-34.4279
185.000000	84.528	-35.8594
187.500000	84.449	-37.2456
190.000000	84.363	-38.5968
192.500000	84.278	-39.8978
195.000000	84.203	-41.1175
197.500000	84.149	-42.3130
200.000000	84.125	-43.5906
203.000000	84.137	-45.2659
206.000000	84.178	-47.0226
209.000000	84.226	-48.8059
212.000000	84.264	-50.5589
214.000000	84.278	-51.7095
218.000000	84.285	-53.9884
220.000000	84.286	-55.1132
224.000000	84.292	-57.2942
227.000000	84.300	-58.8453
230.000000	84.310	-60.3952
233.000000	84.329	-62.0145
236.000000	84.362	-63.7012
240.000000	84.415	-66.0623
243.000000	84.453	-67.9373
247.000000	84.493	-70.4940
250.000000	84.519	-72.3938
254.000000	84.553	-74.9450
258.000000	84.589	-77.5191
262.000000	84.621	-80.0625
265.000000	84.641	-81.9817
269.000000	84.669	-84.5818
272.000000	84.691	-86.5296
276.000000	84.718	-89.0840
280.000000	84.744	-91.6062
285.000000	84.783	-94.7236
290.000000	84.824	-97.8119
295.000000	84.861	-100.9584
300.000000	84.901	-104.2189
304.000000	84.938	-106.8924
307.000000	84.965	-108.8990
311.000000	85.002	-111.5397
315.000000	85.040	-114.1372
320.000000	85.089	-117.3696
325.000000	85.136	-120.6463
330.000000	85.177	-123.9457
335.000000	85.210	-127.1807
340.000000	85.241	-130.3692
345.000000	85.268	-133.6074
350.000000	85.288	-136.8838
355.000000	85.304	-140.1367
360.000000	85.319	-143.3813
365.000000	85.332	-146.6358
370.000000	85.342	-149.8656
375.000000	85.344	-153.0668
382.000000	85.335	-157.5889
387.000000	85.327	-160.8472
395.000000	85.336	-165.9688
400.000000	85.357	-169.1098
406.000000	85.384	-172.8791
412.000000	85.400	-176.7018
418.000000	85.397	179.3757
425.000000	85.380	174.7493
431.000000	85.366	170.9061
437.000000	85.353	167.2012
444.000000	85.343	162.9211
450.000000	85.342	159.2493
455.000000	85.343	156.2386
462.000000	85.341	152.1081
468.000000	85.340	148.5667
475.000000	85.339	144.4219
482.000000	85.327	140.3306
487.000000	85.306	137.4284
494.000000	85.265	133.3437
500.000000	85.230	129.8369
508.000000	85.187	125.1735
515.000000	85.155	121.0805
522.000000	85.125	116.9986
530.000000	85.095	112.4493
538.000000	85.063	108.0198
545.000000	85.034	104.1591
552.000000	85.007	100.3045
560.000000	84.977	95.9417
570.000000	84.931	90.5751
580.000000	84.872	85.2312
590.000000	84.808	79.8585
600.000000	84.754	74.4852
608.000000	84.713	70.2622
615.000000	84.669	66.6473
622.000000	84.615	63.0914
630.000000	84.551	59.0865
640.000000	84.488	54.1597
650.000000	84.444	49.2247
660.000000	84.411	44.2929
670.000000	84.376	39.4238
680.000000	84.323	34.5790
690.000000	84.259	29.7248
700.000000	84.195	24.8704
710.000000	84.141	20.0573
720.000000	84.099	15.3683
730.000000	84.059	10.8458
740.000000	84.012	6.3785
750.000000	83.965	1.9204
762.000000	83.911	-3.3626
775.000000	83.857	-8.9993
788.000000	83.798	-14.5586
800.000000	83.735	-19.6232
812.000000	83.673	-24.6100
825.000000	83.610	-29.9025
838.000000	83.554	-35.1071
850.000000	83.513	-39.8832
862.000000	83.484	-44.6335
875.000000	83.463	-49.7387
885.000000	83.449	-53.6344
900.000000	83.420	-59.4130
912.000000	83.398	-63.9813
925.000000	83.388	-68.9065
938.000000	83.390	-73.8491
950.000000	83.400	-78.4158
962.000000	83.414	-82.9231
975.000000	83.425	-87.7274
988.000000	83.426	-92.5013
1000.000000	83.429	-96.8984
1015.000000	83.445	-102.3434
1030.000000	83.476	-107.7563
1044.000000	83.515	-112.8268
1060.000000	83.570	-118.6239
1075.000000	83.623	-124.0163
1090.000000	83.671	-129.3378
1106.000000	83.710	-134.9460
1120.000000	83.736	-139.8491
1138.000000	83.774	-146.1821
1150.000000	83.807	-150.4051
1172.000000	83.882	-158.1176
1180.000000	83.914	-160.9124
1206.000000	84.031	-169.8892
1220.000000	84.102	-174.6211
1241.000000	84.216	178.3698
1250.000000	84.270	175.3761
1265.000000	84.370	170.4005
1280.000000	84.480	165.4576
1315.000000	84.717	154.0542
1320.000000	84.743	152.4377
1340.000000	84.816	146.0140
1360.000000	84.841	139.6735
1380.000000	84.835	133.4155
1400.000000	84.823	127.2240
1430.000000	84.847	118.0267
1450.000000	84.898	111.9824
1475.000000	84.985	104.5085
1500.000000	85.095	97.1093
1525.000000	85.231	89.8386
1550.000000	85.396	82.7052
1575.000000	85.575	75.7136
1600.000000	85.762	68.7658
1625.000000	85.959	61.7894
1650.000000	86.176	54.7437
1675.000000	86.412	47.6708
1700.000000	86.650	40.6373
1725.000000	86.882	33.6262
1750.000000	87.113	26.6274
1775.000000	87.344	19.6329
1800.000000	87.574	12.6078
1825.000000	87.797	5.5739
1850.000000	88.008	-1.4612
1875.000000	88.209	-8.4683
1900.000000	88.403	-15.4404
1925.000000	88.595	-22.3781
1950.000000	88.787	-29.2667
1975.000000	88.980	-36.1227
2000.000000	89.170	-42.9892
2030.000000	89.385	-51.2512
2060.000000	89.589	-59.4694
2090.000000	89.797	-67.6395
2120.000000	90.008	-75.7741
2140.000000	90.140	-81.1691
2180.000000	90.374	-91.8726
2200.000000	90.479	-97.1559
2240.000000	90.675	-107.6073
2270.000000	90.815	-115.4192
2300.000000	90.951	-123.2379
2330.000000	91.081	-130.9846
2360.000000	91.203	-138.5591
2400.000000	91.345	-148.4038
2430.000000	91.438	-155.6851
2470.000000	91.551	-165.2761
2500.000000	91.632	-172.3645
2540.000000	91.729	178.3232
2580.000000	91.817	169.2012
2620.000000	91.908	160.2986
2650.000000	91.981	153.7451
2690.000000	92.082	145.1404
2720.000000	92.163	138.7765
2760.000000	92.284	130.3417
2800.000000	92.416	121.8752
2850.000000	92.579	111.2672
2900.000000	92.720	100.7328
2950.000000	92.833	90.3523
3000.000000	92.910	80.1650
3040.000000	92.945	72.1417
3070.000000	92.959	66.1825
3110.000000	92.968	58.3246
3150.000000	92.969	50.6143
3200.000000	92.947	41.2507
3250.000000	92.894	32.1732
3300.000000	92.822	23.3578
3350.000000	92.737	14.7983
3400.000000	92.635	6.5160
3450.000000	92.515	-1.4568
3500.000000	92.376	-9.1053
3550.000000	92.222	-16.4227
3600.000000	92.062	-23.3884
3650.000000	91.913	-29.9778
3700.000000	91.796	-36.2242
3750.000000	91.718	-42.2340
3820.000000	91.653	-50.4039
3870.000000	91.625	-56.0850
3950.000000	91.597	-64.7694
4000.000000	91.593	-69.9240
4060.000000	91.604	-75.8596
4120.000000	91.632	-81.5461
4180.000000	91.673	-87.0366
4250.000000	91.739	-93.2793
4310.000000	91.816	-98.5134
4370.000000	91.919	-103.6926
4440.000000	92.084	-109.7520
4500.000000	92.269	-115.0186
4550.000000	92.447	-119.5012
4620.000000	92.716	-125.9792
4680.000000	92.948	-131.7389
4750.000000	93.196	-138.7010
4820.000000	93.391	-145.9546
4870.000000	93.479	-151.3142
4940.000000	93.510	-158.9740
5000.000000	93.436	-165.5543
5080.000000	93.183	-174.0931
5150.000000	92.814	178.9514
5220.000000	92.324	172.7858
5300.000000	91.647	166.9535
5380.000000	90.897	162.4927
5450.000000	90.235	159.6887
5520.000000	89.610	157.8010
5600.000000	88.982	156.5623
5700.000000	88.338	156.0658
5800.000000	87.839	156.3110
5900.000000	87.462	157.0087
6000.000000	87.175	158.0902
6080.000000	86.991	159.2476
6150.000000	86.853	160.4940
6220.000000	86.733	161.9664
6300.000000	86.624	163.9221
6400.000000	86.540	166.7494
6500.000000	86.527	169.9379
6600.000000	86.583	173.4103
6700.000000	86.710	177.1182
6800.000000	86.920	-178.9602
6900.000000	87.226	-174.8470
7000.000000	87.636	-170.6521
7100.000000	88.164	-166.5850
7200.000000	88.826	-162.8972
7300.000000	89.613	-159.9092
7400.000000	90.486	-158.0171
7500.000000	91.374	-157.5715
7620.000000	92.324	-159.1512
7750.000000	92.994	-163.0938
7880.000000	93.087	-168.1801
8000.000000	92.606	-172.4000
8120.000000	91.644	-174.8157
8250.000000	90.217	-174.4111
8380.000000	88.593	-170.5308
8500.000000	87.082	-164.0667
8620.000000	85.667	-155.2952
8750.000000	84.299	-143.7397
8850.000000	83.374	-133.6996
9000.000000	82.187	-117.2153
9120.000000	81.389	-103.1090
9250.000000	80.659	-87.1067
9380.000000	80.060	-70.5295
9500.000000	79.612	-54.8595
9620.000000	79.254	-38.8511
9750.000000	78.961	-21.1190
9880.000000	78.765	-3.0693
10000.000000	78.664	13.7856
10150.000000	78.633	35.0637
10300.000000	78.685	56.5128
10440.000000	78.791	76.6594
10600.000000	78.971	99.8867
10750.000000	79.195	121.9041
10900.000000	79.474	144.1296
11060.000000	79.830	168.0336
11200.000000	80.194	-170.8539
11380.000000	80.725	-143.4907
11500.000000	81.115	-125.1176
11720.000000	81.921	-91.0297
11800.000000	82.249	-78.5205
12060.000000	83.438	-37.6420
12200.000000	84.157	-15.5185
12410.000000	85.344	17.7546
12500.000000	85.894	31.9886
12650.000000	86.858	55.4536
12800.000000	87.866	78.1022
13150.000000	90.115	122.3623
13200.000000	90.382	127.2520
13400.000000	91.172	143.1345
13600.000000	91.327	154.7499
13800.000000	90.701	165.4819
14000.000000	89.340	179.0983
14300.000000	86.433	-148.5536
14500.000000	84.338	-116.4824
14750.000000	81.943	-64.9535
15000.000000	80.019	-5.7581
15250.000000	78.601	55.3713
15500.000000	77.605	116.8450
15750.000000	76.977	177.6711
16000.000000	76.701	-123.6413
16250.000000	76.689	-69.2341
16500.000000	76.738	-20.9157
16750.000000	76.611	22.0694
17000.000000	76.141	62.4836
17250.000000	75.293	104.0157
17500.000000	74.176	150.9917
17750.000000	73.007	-151.1498
18000.000000	72.030	-79.0451
18250.000000	71.388	-1.9081
18500.000000	71.059	68.2737
18750.000000	70.916	131.3110
19000.000000	70.820	-168.9197
19250.000000	70.665	-107.9426
19500.000000	70.397	-43.9647
19750.000000	70.060	7.1079
20000.000000	69.818	31.5451
