* Measurement data measured by REW V5.31.3
* Source: Microphone (USB Sound Device        ), MICROPHONE (Master Volume), L, volume: 0.800
* Format: 256k Log Swept Sine, 1 sweep at -12.0 dBFS with no timing reference
* Dated: 29-Jan-2025 14:05:30
* REW Settings:
*  C-weighting compensation: Off
*  Target level: 75.0 dB
* Note: 
* Measurement: Creative Aurvana Ace 2 R
* Smoothing: 1/12 octave
* Frequency Step: 1/48 octave
* Start Frequency: 20.300 Hz
*
* Freq(Hz)	SPL(dB)	Phase(degrees)
20.299999	78.973	-119.5234
20.600000	79.036	-120.5923
20.900000	79.111	-121.8868
21.200001	79.188	-123.2259
21.400000	79.237	-124.1176
21.799999	79.328	-125.8978
22.000000	79.368	-126.7901
22.400000	79.437	-128.5733
22.700001	79.481	-129.8933
23.000000	79.520	-131.1814
23.299999	79.559	-132.4294
23.600000	79.601	-133.6398
24.000000	79.658	-135.2126
24.299999	79.700	-136.3731
24.700001	79.748	-137.8933
25.000000	79.775	-138.9982
25.400000	79.798	-140.3963
25.799999	79.813	-141.6961
26.200001	79.829	-142.9217
26.500000	79.844	-143.8235
26.900000	79.869	-145.0413
27.200001	79.887	-145.9755
27.600000	79.905	-147.2318
28.000000	79.916	-148.4611
28.500000	79.920	-149.9129
29.000000	79.924	-151.2790
29.500000	79.930	-152.6122
30.000000	79.934	-153.9346
30.400000	79.933	-154.9625
30.700001	79.931	-155.7005
31.100000	79.931	-156.6378
31.500000	79.936	-157.5401
32.000000	79.947	-158.6643
32.500000	79.952	-159.8074
33.000000	79.948	-160.9449
33.500000	79.940	-162.0444
34.000000	79.938	-163.1139
34.500000	79.944	-164.1903
35.000000	79.950	-165.2852
35.500000	79.945	-166.3604
36.000000	79.928	-167.3643
36.500000	79.905	-168.2832
37.000000	79.884	-169.1526
37.500000	79.866	-170.0215
38.200001	79.843	-171.2794
38.700001	79.825	-172.1981
39.500000	79.795	-173.6660
40.000000	79.771	-174.5686
40.599998	79.737	-175.6249
41.200001	79.698	-176.6473
41.799999	79.656	-177.6421
42.500000	79.607	-178.7788
43.099998	79.562	-179.7355
43.700001	79.516	179.3182
44.400002	79.461	178.2156
45.000000	79.409	177.2803
45.500000	79.361	176.5294
46.200001	79.291	175.5519
46.799999	79.232	174.7833
47.500000	79.165	173.9430
48.200001	79.101	173.1418
48.700001	79.055	172.5863
49.400002	78.990	171.8191
50.000000	78.929	171.1585
50.799999	78.836	170.2701
51.500000	78.747	169.5112
52.200001	78.659	168.8080
53.000000	78.560	168.0965
53.799999	78.466	167.4629
54.500000	78.384	166.9421
55.200001	78.304	166.4407
56.000000	78.216	165.8963
57.000000	78.113	165.2715
58.000000	78.014	164.7011
59.000000	77.919	164.1630
60.000000	77.830	163.6628
60.799999	77.763	163.3076
61.500000	77.706	163.0358
62.200001	77.650	162.7867
63.000000	77.589	162.4958
64.000000	77.513	162.0959
65.000000	77.443	161.6976
66.000000	77.384	161.3271
67.000000	77.330	160.9692
68.000000	77.272	160.6327
69.000000	77.209	160.3273
70.000000	77.146	160.0258
71.000000	77.088	159.6880
72.000000	77.037	159.3114
73.000000	76.991	158.9320
74.000000	76.950	158.5797
75.000000	76.907	158.2654
76.199997	76.853	157.9376
77.500000	76.795	157.6182
78.800003	76.743	157.2784
80.000000	76.692	156.9131
81.199997	76.637	156.5301
82.500000	76.580	156.1526
83.800003	76.534	155.8127
85.000000	76.497	155.4995
86.199997	76.457	155.1758
87.500000	76.410	154.8179
88.500000	76.370	154.5475
90.000000	76.305	154.1684
91.199997	76.254	153.8677
92.500000	76.204	153.5334
93.800003	76.156	153.2199
95.000000	76.112	152.9696
96.199997	76.066	152.7466
97.500000	76.016	152.5109
98.800003	75.964	152.2606
100.000000	75.919	152.0098
101.500000	75.872	151.6802
103.000000	75.832	151.3652
104.400002	75.797	151.1091
106.000000	75.756	150.8539
107.500000	75.714	150.6182
109.000000	75.673	150.3624
110.599998	75.630	150.0772
112.000000	75.590	149.8389
113.800003	75.534	149.5475
115.000000	75.495	149.3491
117.199997	75.432	148.9862
118.000000	75.411	148.8572
120.599998	75.349	148.4484
122.000000	75.314	148.2522
124.099998	75.261	147.9903
125.000000	75.239	147.8887
126.500000	75.203	147.7256
128.000000	75.172	147.5573
131.500000	75.108	147.1462
132.000000	75.100	147.0821
134.000000	75.067	146.8008
136.000000	75.037	146.5152
138.000000	75.009	146.2688
140.000000	74.977	146.0316
143.000000	74.924	145.6341
145.000000	74.890	145.3820
147.500000	74.852	145.0847
150.000000	74.818	144.7596
152.500000	74.790	144.4185
155.000000	74.764	144.0850
157.500000	74.736	143.7633
160.000000	74.705	143.4262
162.500000	74.677	143.0623
165.000000	74.654	142.6964
167.500000	74.633	142.3254
170.000000	74.612	141.9408
172.500000	74.588	141.5512
175.000000	74.562	141.1553
177.500000	74.531	140.7531
180.000000	74.493	140.3416
182.500000	74.444	139.9022
185.000000	74.380	139.4447
187.500000	74.300	138.9976
190.000000	74.211	138.5773
192.500000	74.123	138.1984
195.000000	74.044	137.8615
197.500000	73.977	137.5302
200.000000	73.921	137.1771
203.000000	73.869	136.7643
206.000000	73.828	136.4387
209.000000	73.793	136.2305
212.000000	73.761	136.1071
214.000000	73.741	136.0437
218.000000	73.700	135.8951
220.000000	73.679	135.7930
224.000000	73.635	135.5377
227.000000	73.598	135.3081
230.000000	73.559	135.0502
233.000000	73.520	134.7809
236.000000	73.481	134.5065
240.000000	73.429	134.1276
243.000000	73.388	133.8480
247.000000	73.329	133.4905
250.000000	73.285	133.2349
254.000000	73.229	132.9327
258.000000	73.175	132.6741
262.000000	73.119	132.4273
265.000000	73.078	132.2461
269.000000	73.026	132.0021
272.000000	72.985	131.8045
276.000000	72.929	131.5294
280.000000	72.872	131.2771
285.000000	72.805	131.0054
290.000000	72.745	130.7292
295.000000	72.689	130.4398
300.000000	72.635	130.1389
304.000000	72.590	129.9032
307.000000	72.557	129.7483
311.000000	72.515	129.5753
315.000000	72.477	129.4139
320.000000	72.432	129.1822
325.000000	72.386	128.9327
330.000000	72.337	128.7038
335.000000	72.292	128.4843
340.000000	72.253	128.2344
345.000000	72.219	127.9472
350.000000	72.180	127.6372
355.000000	72.134	127.3254
360.000000	72.087	127.0266
365.000000	72.041	126.7460
370.000000	71.998	126.4794
375.000000	71.957	126.2103
382.000000	71.901	125.8293
387.000000	71.857	125.5684
395.000000	71.779	125.1058
400.000000	71.731	124.7549
406.000000	71.676	124.3350
412.000000	71.619	123.9647
418.000000	71.557	123.6443
425.000000	71.482	123.3279
431.000000	71.419	123.0903
437.000000	71.357	122.8605
444.000000	71.285	122.5632
450.000000	71.225	122.2822
455.000000	71.175	122.0554
462.000000	71.103	121.7646
468.000000	71.038	121.5378
475.000000	70.962	121.3024
482.000000	70.887	121.1055
487.000000	70.834	120.9970
494.000000	70.759	120.8726
500.000000	70.695	120.7510
508.000000	70.613	120.5409
515.000000	70.543	120.3500
522.000000	70.473	120.1926
530.000000	70.392	120.0596
538.000000	70.309	119.9805
545.000000	70.232	119.9396
552.000000	70.157	119.9146
560.000000	70.075	119.9090
570.000000	69.976	119.9248
580.000000	69.881	119.9687
590.000000	69.795	120.0358
600.000000	69.712	120.0991
608.000000	69.642	120.1468
615.000000	69.576	120.2070
622.000000	69.507	120.3029
630.000000	69.425	120.4687
640.000000	69.325	120.7814
650.000000	69.237	121.2096
660.000000	69.165	121.6966
670.000000	69.111	122.1862
680.000000	69.066	122.6465
690.000000	69.019	123.0419
700.000000	68.972	123.3759
710.000000	68.931	123.6875
720.000000	68.896	124.0057
730.000000	68.866	124.3280
740.000000	68.841	124.6641
750.000000	68.818	125.0342
762.000000	68.786	125.5704
775.000000	68.750	126.2433
788.000000	68.721	126.9370
800.000000	68.705	127.5822
812.000000	68.702	128.2155
825.000000	68.715	128.8716
838.000000	68.736	129.4763
850.000000	68.761	129.9959
862.000000	68.789	130.4974
875.000000	68.821	131.0214
885.000000	68.847	131.4103
900.000000	68.889	131.9872
912.000000	68.926	132.4561
925.000000	68.974	132.9543
938.000000	69.027	133.3925
950.000000	69.079	133.7341
962.000000	69.135	134.0245
975.000000	69.197	134.2934
988.000000	69.262	134.5446
1000.000000	69.324	134.7683
1015.000000	69.402	135.0139
1030.000000	69.479	135.2043
1044.000000	69.552	135.3285
1060.000000	69.634	135.4035
1075.000000	69.705	135.4339
1090.000000	69.772	135.4728
1106.000000	69.842	135.5345
1120.000000	69.903	135.5760
1138.000000	69.978	135.5771
1150.000000	70.024	135.5442
1172.000000	70.106	135.4574
1180.000000	70.137	135.4313
1206.000000	70.243	135.3886
1220.000000	70.304	135.3759
1241.000000	70.402	135.3542
1250.000000	70.447	135.3487
1265.000000	70.526	135.3478
1280.000000	70.609	135.3549
1315.000000	70.786	135.4430
1320.000000	70.805	135.4685
1340.000000	70.851	135.6033
1360.000000	70.846	135.7841
1380.000000	70.809	135.9972
1400.000000	70.764	136.2341
1430.000000	70.729	136.6267
1450.000000	70.740	136.8801
1475.000000	70.785	137.1872
1500.000000	70.855	137.5276
1525.000000	70.941	137.9147
1550.000000	71.042	138.3694
1575.000000	71.156	138.8898
1600.000000	71.274	139.4368
1625.000000	71.394	139.9871
1650.000000	71.515	140.5186
1675.000000	71.638	141.0374
1700.000000	71.764	141.5746
1725.000000	71.899	142.1310
1750.000000	72.043	142.6934
1775.000000	72.194	143.2524
1800.000000	72.355	143.8094
1825.000000	72.527	144.3619
1850.000000	72.707	144.8904
1875.000000	72.893	145.3823
1900.000000	73.085	145.8366
1925.000000	73.282	146.2602
1950.000000	73.484	146.6455
1975.000000	73.688	146.9745
2000.000000	73.894	147.2457
2030.000000	74.145	147.4948
2060.000000	74.400	147.6550
2090.000000	74.658	147.7391
2120.000000	74.919	147.7410
2140.000000	75.096	147.6896
2180.000000	75.457	147.4764
2200.000000	75.638	147.3306
2240.000000	75.997	146.9799
2270.000000	76.260	146.6275
2300.000000	76.515	146.1701
2330.000000	76.762	145.6127
2360.000000	77.003	144.9643
2400.000000	77.314	143.9730
2430.000000	77.538	143.1294
2470.000000	77.819	141.8647
2500.000000	78.014	140.8225
2540.000000	78.252	139.3355
2580.000000	78.463	137.7590
2620.000000	78.647	136.1050
2650.000000	78.764	134.8248
2690.000000	78.891	133.0989
2720.000000	78.966	131.8132
2760.000000	79.039	130.1461
2800.000000	79.084	128.5587
2850.000000	79.108	126.7125
2900.000000	79.100	125.0586
2950.000000	79.063	123.6250
3000.000000	79.004	122.4418
3040.000000	78.946	121.6661
3070.000000	78.901	121.1698
3110.000000	78.840	120.6157
3150.000000	78.784	120.1988
3200.000000	78.718	119.8803
3250.000000	78.659	119.7533
3300.000000	78.605	119.7855
3350.000000	78.560	119.9617
3400.000000	78.525	120.2731
3450.000000	78.501	120.7009
3500.000000	78.489	121.2180
3550.000000	78.495	121.8019
3600.000000	78.522	122.4283
3650.000000	78.577	123.0776
3700.000000	78.664	123.7358
3750.000000	78.784	124.3707
3820.000000	79.006	125.1431
3870.000000	79.195	125.5761
3950.000000	79.537	125.9785
4000.000000	79.765	125.9796
4060.000000	80.039	125.6490
4120.000000	80.297	124.8897
4180.000000	80.520	123.6598
4250.000000	80.710	121.6451
4310.000000	80.786	119.4781
4370.000000	80.763	117.0148
4440.000000	80.585	114.0522
4500.000000	80.287	111.8664
4550.000000	79.951	110.7342
4620.000000	79.467	110.8289
4680.000000	79.214	111.9420
4750.000000	79.091	112.4422
4820.000000	78.887	111.8866
4870.000000	78.638	111.5821
4940.000000	78.200	111.8713
5000.000000	77.800	112.8370
5080.000000	77.292	114.9443
5150.000000	76.892	117.3523
5220.000000	76.543	120.1362
5300.000000	76.201	123.6341
5380.000000	75.916	127.3510
5450.000000	75.708	130.7422
5520.000000	75.540	134.2452
5600.000000	75.401	138.3265
5700.000000	75.304	143.4393
5800.000000	75.281	148.4885
5900.000000	75.322	153.4559
6000.000000	75.411	158.3776
6080.000000	75.507	162.3504
6150.000000	75.609	165.8977
6220.000000	75.731	169.5273
6300.000000	75.907	173.7668
6400.000000	76.203	179.1343
6500.000000	76.606	-175.5750
6600.000000	77.136	-170.6055
6700.000000	77.804	-166.2747
6800.000000	78.605	-162.9800
6900.000000	79.500	-161.1489
7000.000000	80.414	-161.1348
7100.000000	81.253	-163.1081
7200.000000	81.907	-166.9375
7300.000000	82.278	-172.1438
7400.000000	82.308	-177.9649
7500.000000	81.995	176.4650
7620.000000	81.242	171.1373
7750.000000	80.096	167.7969
7880.000000	78.738	167.1522
8000.000000	77.379	168.6954
8120.000000	75.974	171.9285
8250.000000	74.444	176.9766
8380.000000	72.953	-176.6297
8500.000000	71.651	-169.6809
8620.000000	70.450	-161.8365
8750.000000	69.279	-152.4749
8850.000000	68.471	-144.7566
9000.000000	67.401	-132.4980
9120.000000	66.657	-122.2547
9250.000000	65.953	-110.8639
9380.000000	65.353	-99.2699
9500.000000	64.895	-88.4697
9620.000000	64.526	-77.6534
9750.000000	64.218	-66.0266
9880.000000	63.994	-54.6121
10000.000000	63.847	-44.3116
10150.000000	63.726	-31.7784
10300.000000	63.639	-19.6130
10440.000000	63.566	-8.5069
10600.000000	63.480	4.0686
10750.000000	63.402	15.9250
10900.000000	63.338	27.9428
11060.000000	63.295	40.9624
11200.000000	63.282	52.6007
11380.000000	63.317	68.0157
11500.000000	63.385	78.5626
11720.000000	63.640	98.3868
11800.000000	63.783	105.7316
12060.000000	64.474	130.0577
12200.000000	65.020	143.4234
12410.000000	66.128	163.4121
12500.000000	66.718	171.7106
12650.000000	67.848	-175.3343
12800.000000	69.119	-164.1884
13150.000000	72.103	-149.5448
13200.000000	72.460	-148.9241
13400.000000	73.510	-149.6052
13600.000000	73.749	-153.4174
13800.000000	73.078	-156.9409
14000.000000	71.661	-156.8839
14300.000000	68.886	-146.0436
14500.000000	67.131	-131.7805
14750.000000	65.421	-109.8714
15000.000000	64.180	-87.1462
15250.000000	63.187	-64.0761
15500.000000	62.327	-40.4855
15750.000000	61.568	-17.5467
16000.000000	60.863	4.9133
16250.000000	60.318	30.5913
16500.000000	60.211	58.5447
16750.000000	60.527	85.2921
17000.000000	61.122	110.5151
17250.000000	61.913	134.5405
17500.000000	62.863	157.2959
17750.000000	63.945	178.4783
18000.000000	65.111	-162.4460
18250.000000	66.265	-146.2026
18500.000000	67.259	-133.3657
18750.000000	67.909	-123.9849
19000.000000	68.015	-117.0954
19250.000000	67.468	-110.4572
19500.000000	66.360	-101.7613
19750.000000	65.004	-90.4602
20000.000000	64.036	-81.1627
