* Measurement data measured by REW V5.20.13
* Source: Microphone (2- USB Audio Device), MICROPHONE (Master Volume), L, volume: 0.250. Timing signal peak level -30.8 dBFS, measurement signal peak level -26.9 dBFS
* Format: 256k Log Swept Sine, 1 sweep at -12.0 dBFS using an acoustic timing reference
* Dated: 05-Jun-2023 09:23:41
* REW Settings:
*  C-weighting compensation: Off
*  Target level: 75.0 dB
* Note: 
* Measurement: Creative R
* Smoothing: 1/12 octave
* Frequency Step: 1/48 octave
* Start Frequency: 20.000 Hz
*
* Freq(Hz)	SPL(dB)	Phase(degrees)
20.000000	77.085	-112.0383
20.299999	77.272	-113.3028
20.600000	77.441	-114.4785
20.900000	77.592	-115.5546
21.200001	77.723	-116.5262
21.400000	77.801	-117.1212
21.799999	77.938	-118.2129
22.000000	77.997	-118.7291
22.400000	78.102	-119.7481
22.700001	78.167	-120.5300
23.000000	78.219	-121.3427
23.299999	78.260	-122.1867
23.600000	78.291	-123.0609
24.000000	78.321	-124.2744
24.299999	78.338	-125.2246
24.700001	78.356	-126.5477
25.000000	78.368	-127.5744
25.400000	78.384	-128.9655
25.799999	78.406	-130.3469
26.200001	78.437	-131.6927
26.500000	78.469	-132.6749
26.900000	78.523	-133.9518
27.200001	78.570	-134.8870
27.600000	78.637	-136.1004
28.000000	78.704	-137.2608
28.500000	78.781	-138.6054
29.000000	78.848	-139.8018
29.500000	78.905	-140.8463
30.000000	78.956	-141.7758
30.400000	78.992	-142.4777
30.700001	79.015	-142.9986
31.100000	79.038	-143.6995
31.500000	79.054	-144.4106
32.000000	79.065	-145.3101
32.500000	79.070	-146.2204
33.000000	79.072	-147.1479
33.500000	79.076	-148.0964
34.000000	79.084	-149.0617
34.500000	79.097	-150.0368
35.000000	79.115	-151.0166
35.500000	79.136	-151.9914
36.000000	79.160	-152.9440
36.500000	79.184	-153.8565
37.000000	79.208	-154.7179
37.500000	79.231	-155.5282
38.200001	79.257	-156.5878
38.700001	79.271	-157.2997
39.500000	79.289	-158.3856
40.000000	79.299	-159.0534
40.599998	79.310	-159.8705
41.200001	79.321	-160.7220
41.799999	79.329	-161.6054
42.500000	79.332	-162.6536
43.099998	79.330	-163.5443
43.700001	79.324	-164.4141
44.400002	79.315	-165.3928
45.000000	79.305	-166.1940
45.500000	79.298	-166.8344
46.200001	79.289	-167.7028
46.799999	79.285	-168.4432
47.500000	79.282	-169.3200
48.200001	79.279	-170.1955
48.700001	79.277	-170.8034
49.400002	79.277	-171.6224
50.000000	79.276	-172.3094
50.799999	79.270	-173.2347
51.500000	79.258	-174.0594
52.200001	79.239	-174.8852
53.000000	79.213	-175.8129
53.799999	79.181	-176.7085
54.500000	79.151	-177.4584
55.200001	79.121	-178.1821
56.000000	79.088	-178.9947
57.000000	79.053	179.9820
58.000000	79.019	178.9413
59.000000	78.982	177.9213
60.000000	78.946	176.9591
60.799999	78.918	176.2213
61.500000	78.892	175.5906
62.200001	78.862	174.9784
63.000000	78.826	174.3051
64.000000	78.779	173.4872
65.000000	78.732	172.6703
66.000000	78.682	171.8548
67.000000	78.631	171.0625
68.000000	78.580	170.3125
69.000000	78.529	169.6031
70.000000	78.478	168.9280
71.000000	78.429	168.2870
72.000000	78.382	167.6648
73.000000	78.337	167.0410
74.000000	78.290	166.4082
75.000000	78.239	165.7704
76.199997	78.169	165.0197
77.500000	78.091	164.2449
78.800003	78.018	163.4938
80.000000	77.956	162.7961
81.199997	77.896	162.0973
82.500000	77.832	161.3721
83.800003	77.770	160.6907
85.000000	77.712	160.0869
86.199997	77.651	159.5020
87.500000	77.579	158.9015
88.500000	77.522	158.4708
90.000000	77.441	157.8702
91.199997	77.381	157.4189
92.500000	77.318	156.9579
93.800003	77.255	156.5308
95.000000	77.198	156.1528
96.199997	77.141	155.7709
97.500000	77.081	155.3385
98.800003	77.023	154.8781
100.000000	76.972	154.4389
101.500000	76.912	153.9098
103.000000	76.855	153.4397
104.400002	76.805	153.0526
106.000000	76.750	152.6388
107.500000	76.699	152.2503
109.000000	76.651	151.8287
110.599998	76.602	151.3249
112.000000	76.558	150.8669
113.800003	76.502	150.3089
115.000000	76.466	149.9710
117.199997	76.404	149.4263
118.000000	76.383	149.2448
120.599998	76.316	148.6682
122.000000	76.280	148.3694
124.099998	76.232	147.9415
125.000000	76.215	147.7535
126.500000	76.190	147.4211
128.000000	76.168	147.0695
131.500000	76.135	146.2667
132.000000	76.132	146.1581
134.000000	76.122	145.7184
136.000000	76.107	145.2406
138.000000	76.079	144.7358
140.000000	76.042	144.2357
143.000000	75.992	143.5017
145.000000	75.966	143.0142
147.500000	75.943	142.4206
150.000000	75.934	141.8513
152.500000	75.942	141.2616
155.000000	75.953	140.6132
157.500000	75.952	139.9208
160.000000	75.944	139.2144
162.500000	75.939	138.5248
165.000000	75.938	137.8899
167.500000	75.940	137.3113
170.000000	75.946	136.7209
172.500000	75.960	136.0575
175.000000	75.974	135.3410
177.500000	75.982	134.6181
180.000000	75.974	133.9005
182.500000	75.950	133.1879
185.000000	75.917	132.4781
187.500000	75.883	131.7539
190.000000	75.851	130.9962
192.500000	75.823	130.2050
195.000000	75.803	129.4023
197.500000	75.794	128.6180
200.000000	75.796	127.8694
203.000000	75.812	127.0055
206.000000	75.844	126.1277
209.000000	75.889	125.1869
212.000000	75.935	124.1920
214.000000	75.960	123.5232
218.000000	75.988	122.1966
220.000000	75.991	121.5245
224.000000	75.988	120.1450
227.000000	75.987	119.1122
230.000000	75.988	118.1055
233.000000	75.987	117.1169
236.000000	75.985	116.1320
240.000000	75.988	114.8023
243.000000	75.993	113.7827
247.000000	75.995	112.4032
250.000000	75.996	111.3632
254.000000	76.000	109.9699
258.000000	76.010	108.5685
262.000000	76.020	107.1563
265.000000	76.028	106.0897
269.000000	76.036	104.6706
272.000000	76.040	103.6136
276.000000	76.045	102.1956
280.000000	76.050	100.7412
285.000000	76.059	98.8601
290.000000	76.068	96.9447
295.000000	76.071	95.0536
300.000000	76.072	93.1870
304.000000	76.073	91.6762
307.000000	76.077	90.5233
311.000000	76.086	88.9621
315.000000	76.095	87.3884
320.000000	76.104	85.4260
325.000000	76.113	83.4667
330.000000	76.122	81.5161
335.000000	76.130	79.5901
340.000000	76.138	77.6777
345.000000	76.152	75.7402
350.000000	76.164	73.7520
355.000000	76.168	71.7213
360.000000	76.166	69.6771
365.000000	76.167	67.6400
370.000000	76.172	65.6088
375.000000	76.178	63.5708
382.000000	76.179	60.6948
387.000000	76.176	58.6460
395.000000	76.173	55.3669
400.000000	76.171	53.2729
406.000000	76.169	50.6898
412.000000	76.165	48.0332
418.000000	76.160	45.3179
425.000000	76.150	42.1032
431.000000	76.138	39.3201
437.000000	76.123	36.4764
444.000000	76.098	33.0635
450.000000	76.071	30.0972
455.000000	76.049	27.6262
462.000000	76.013	24.2070
468.000000	75.976	21.3589
475.000000	75.928	18.1972
482.000000	75.879	15.2251
487.000000	75.843	13.1976
494.000000	75.794	10.4822
500.000000	75.755	8.2791
508.000000	75.703	5.4971
515.000000	75.649	3.1371
522.000000	75.588	0.8073
530.000000	75.516	-1.8220
538.000000	75.443	-4.4240
545.000000	75.375	-6.6812
552.000000	75.305	-8.9193
560.000000	75.225	-11.4482
570.000000	75.126	-14.5844
580.000000	75.024	-17.7057
590.000000	74.923	-20.7836
600.000000	74.823	-23.8035
608.000000	74.744	-26.1493
615.000000	74.675	-28.1469
622.000000	74.608	-30.1158
630.000000	74.530	-32.3627
640.000000	74.433	-35.1761
650.000000	74.328	-37.9843
660.000000	74.216	-40.7969
670.000000	74.109	-43.6168
680.000000	74.018	-46.4079
690.000000	73.941	-49.1387
700.000000	73.871	-51.8384
710.000000	73.807	-54.5450
720.000000	73.752	-57.2427
730.000000	73.709	-59.8963
740.000000	73.673	-62.4940
750.000000	73.634	-65.0312
762.000000	73.575	-67.9764
775.000000	73.509	-71.0673
788.000000	73.456	-74.1469
800.000000	73.423	-77.0356
812.000000	73.406	-79.9470
825.000000	73.402	-83.0879
838.000000	73.404	-86.1818
850.000000	73.406	-88.9760
862.000000	73.409	-91.7193
875.000000	73.420	-94.6562
885.000000	73.436	-96.9095
900.000000	73.469	-100.2890
912.000000	73.502	-102.9943
925.000000	73.544	-105.9547
938.000000	73.590	-108.9612
950.000000	73.634	-111.7516
962.000000	73.681	-114.5377
975.000000	73.735	-117.5603
988.000000	73.791	-120.5900
1000.000000	73.842	-123.3752
1015.000000	73.903	-126.8218
1030.000000	73.968	-130.2355
1044.000000	74.039	-133.4193
1060.000000	74.127	-137.0722
1075.000000	74.206	-140.5473
1090.000000	74.274	-144.1559
1106.000000	74.335	-148.1873
1120.000000	74.381	-151.8185
1138.000000	74.436	-156.5719
1150.000000	74.471	-159.7787
1172.000000	74.531	-165.6675
1180.000000	74.552	-167.7948
1206.000000	74.617	-174.6288
1220.000000	74.649	-178.2465
1241.000000	74.694	176.4640
1250.000000	74.713	174.2554
1265.000000	74.748	170.6511
1280.000000	74.784	167.1388
1315.000000	74.829	159.2941
1320.000000	74.827	158.2065
1340.000000	74.793	153.9057
1360.000000	74.709	149.6422
1380.000000	74.582	145.3722
1400.000000	74.434	141.0932
1430.000000	74.239	134.7112
1450.000000	74.147	130.4812
1475.000000	74.074	125.2404
1500.000000	74.044	120.0822
1525.000000	74.034	115.0184
1550.000000	74.036	110.0306
1575.000000	74.053	105.1011
1600.000000	74.093	100.2485
1625.000000	74.155	95.4868
1650.000000	74.232	90.7969
1675.000000	74.314	86.1837
1700.000000	74.401	81.6959
1725.000000	74.492	77.3399
1750.000000	74.592	73.0631
1775.000000	74.706	68.8077
1800.000000	74.830	64.5358
1825.000000	74.960	60.2114
1850.000000	75.102	55.8250
1875.000000	75.258	51.4014
1900.000000	75.426	46.9429
1925.000000	75.603	42.3953
1950.000000	75.788	37.7065
1975.000000	75.978	32.8674
2000.000000	76.176	27.8955
2030.000000	76.421	21.8082
2060.000000	76.677	15.7078
2090.000000	76.945	9.6885
2120.000000	77.223	3.7544
2140.000000	77.414	-0.1724
2180.000000	77.815	-8.0502
2200.000000	78.026	-12.0674
2240.000000	78.456	-20.4594
2270.000000	78.776	-27.1503
2300.000000	79.099	-34.1257
2330.000000	79.431	-41.2664
2360.000000	79.772	-48.5073
2400.000000	80.229	-58.3521
2430.000000	80.562	-65.9547
2470.000000	80.978	-76.4662
2500.000000	81.267	-84.6253
2540.000000	81.624	-95.7834
2580.000000	81.956	-107.0629
2620.000000	82.267	-118.2146
2650.000000	82.484	-126.3989
2690.000000	82.748	-137.0751
2720.000000	82.928	-144.9575
2760.000000	83.149	-155.3882
2800.000000	83.354	-165.8280
2850.000000	83.579	-179.0165
2900.000000	83.773	167.7114
2950.000000	83.947	154.5530
3000.000000	84.099	141.6201
3040.000000	84.201	131.4810
3070.000000	84.267	124.0280
3110.000000	84.350	114.3108
3150.000000	84.434	104.8223
3200.000000	84.545	93.2015
3250.000000	84.662	81.7307
3300.000000	84.780	70.2598
3350.000000	84.900	58.6531
3400.000000	85.023	46.8004
3450.000000	85.146	34.6469
3500.000000	85.271	22.2866
3550.000000	85.409	9.9301
3600.000000	85.563	-2.2922
3650.000000	85.729	-14.3938
3700.000000	85.903	-26.4181
3750.000000	86.081	-38.4164
3820.000000	86.305	-55.4880
3870.000000	86.418	-68.1432
3950.000000	86.492	-89.2156
4000.000000	86.457	-102.6655
4060.000000	86.307	-118.8181
4120.000000	86.028	-134.7185
4180.000000	85.635	-150.1171
4250.000000	85.054	-167.3442
4310.000000	84.458	178.4592
4370.000000	83.787	164.7653
4440.000000	82.955	149.4052
4500.000000	82.229	136.6401
4550.000000	81.624	126.2222
4620.000000	80.793	112.1161
4680.000000	80.105	100.6990
4750.000000	79.342	88.2849
4820.000000	78.617	76.6987
4870.000000	78.120	68.7672
4940.000000	77.453	57.8894
5000.000000	76.910	48.5574
5080.000000	76.217	35.8601
5150.000000	75.642	24.5421
5220.000000	75.100	13.2251
5300.000000	74.524	0.4681
5380.000000	73.991	-12.0552
5450.000000	73.557	-22.8322
5520.000000	73.148	-33.3823
5600.000000	72.712	-44.9957
5700.000000	72.227	-58.6635
5800.000000	71.804	-71.5175
5900.000000	71.428	-83.9989
6000.000000	71.093	-96.3857
6080.000000	70.869	-106.2834
6150.000000	70.706	-115.1088
6220.000000	70.558	-124.2495
6300.000000	70.382	-135.0503
6400.000000	70.155	-148.7478
6500.000000	69.951	-162.3295
6600.000000	69.787	-175.7601
6700.000000	69.664	170.7740
6800.000000	69.585	157.1680
6900.000000	69.555	143.4972
7000.000000	69.566	129.8223
7100.000000	69.616	116.1761
7200.000000	69.717	102.6134
7300.000000	69.877	89.0984
7400.000000	70.092	75.5621
7500.000000	70.369	61.9696
7620.000000	70.781	45.3782
7750.000000	71.275	26.6111
7880.000000	71.777	6.9758
8000.000000	72.241	-11.6643
8120.000000	72.732	-30.6846
8250.000000	73.356	-51.6917
8380.000000	74.156	-73.1592
8500.000000	75.090	-93.7251
8620.000000	76.179	-115.8213
8750.000000	77.410	-142.6663
8850.000000	78.269	-165.8984
9000.000000	79.170	155.3174
9120.000000	79.385	122.2368
9250.000000	79.027	86.6414
9380.000000	78.100	53.4500
9500.000000	76.865	25.8853
9620.000000	75.415	1.1853
9750.000000	73.757	-22.9314
9880.000000	72.133	-44.9744
10000.000000	70.723	-63.9553
10150.000000	69.115	-86.3333
10300.000000	67.677	-107.7190
10440.000000	66.475	-127.1638
10600.000000	65.259	-149.1709
10750.000000	64.252	-169.8608
10900.000000	63.355	169.3481
11060.000000	62.505	147.0728
11200.000000	61.835	127.5923
11380.000000	61.052	103.0994
11500.000000	60.574	87.5361
11720.000000	59.806	60.9326
11800.000000	59.560	51.6667
12060.000000	58.845	21.3752
12200.000000	58.508	4.6338
12410.000000	58.077	-20.4778
12500.000000	57.919	-30.9893
12650.000000	57.685	-47.8115
12800.000000	57.481	-63.5435
13150.000000	56.976	-96.3440
13200.000000	56.893	-100.6641
13400.000000	56.555	-117.3318
13600.000000	56.280	-133.4087
13800.000000	56.150	-149.1877
14000.000000	56.209	-164.6787
14300.000000	56.684	172.4414
14500.000000	57.260	156.8589
14750.000000	58.236	136.6445
15000.000000	59.476	115.5522
15250.000000	61.000	93.5129
15500.000000	62.846	70.3618
15750.000000	64.977	44.8281
16000.000000	67.162	14.4749
16250.000000	69.022	-22.4792
16500.000000	70.230	-65.0337
16750.000000	70.680	-108.9985
17000.000000	70.525	-150.7200
17250.000000	70.010	170.0046
17500.000000	69.247	131.5093
17750.000000	68.157	93.1445
18000.000000	66.629	55.6069
18250.000000	64.663	18.0835
18500.000000	62.384	-25.6467
18750.000000	59.981	-88.0840
19000.000000	57.653	-177.7693
19250.000000	55.586	81.1270
19500.000000	53.919	1.1160
19750.000000	52.719	-45.0347
