* Measurement data measured by REW V5.31.3
* Source: Microphone (USB Sound Device        ), MICROPHONE (Master Volume), L, volume: 0.700
* Format: 256k Log Swept Sine, 1 sweep at -12.0 dBFS with no timing reference
* Dated: 29-Jan-2025 18:34:57
* REW Settings:
*  C-weighting compensation: Off
*  Target level: 75.0 dB
* Note: 
* Measurement: Dunu Kima 2 R
* Smoothing: 1/12 octave
* Frequency Step: 1/48 octave
* Start Frequency: 20.300 Hz
*
* Freq(Hz)	SPL(dB)	Phase(degrees)
20.299999	70.413	-137.5051
20.600000	70.431	-137.9411
20.900000	70.454	-138.4840
21.200001	70.477	-139.0610
21.400000	70.492	-139.4503
21.799999	70.522	-140.2269
22.000000	70.537	-140.6107
22.400000	70.567	-141.3624
22.700001	70.589	-141.9077
23.000000	70.612	-142.4353
23.299999	70.634	-142.9460
23.600000	70.655	-143.4419
24.000000	70.681	-144.0855
24.299999	70.697	-144.5583
24.700001	70.717	-145.1778
25.000000	70.731	-145.6345
25.400000	70.749	-146.2316
25.799999	70.766	-146.8140
26.200001	70.783	-147.3805
26.500000	70.796	-147.7948
26.900000	70.811	-148.3333
27.200001	70.822	-148.7277
27.600000	70.835	-149.2426
28.000000	70.848	-149.7472
28.500000	70.863	-150.3653
29.000000	70.876	-150.9687
29.500000	70.889	-151.5543
30.000000	70.901	-152.1204
30.400000	70.910	-152.5600
30.700001	70.916	-152.8831
31.100000	70.923	-153.3059
31.500000	70.930	-153.7200
32.000000	70.938	-154.2253
32.500000	70.947	-154.7172
33.000000	70.956	-155.1973
33.500000	70.965	-155.6672
34.000000	70.974	-156.1266
34.500000	70.981	-156.5737
35.000000	70.986	-157.0078
35.500000	70.990	-157.4309
36.000000	70.993	-157.8475
36.500000	70.998	-158.2613
37.000000	71.003	-158.6718
37.500000	71.007	-159.0741
38.200001	71.010	-159.6128
38.700001	71.009	-159.9782
39.500000	71.007	-160.5430
40.000000	71.005	-160.8923
40.599998	71.005	-161.3096
41.200001	71.006	-161.7197
41.799999	71.011	-162.1169
42.500000	71.016	-162.5632
43.099998	71.018	-162.9351
43.700001	71.018	-163.3010
44.400002	71.016	-163.7215
45.000000	71.014	-164.0749
45.500000	71.012	-164.3628
46.200001	71.008	-164.7550
46.799999	71.005	-165.0833
47.500000	71.003	-165.4640
48.200001	71.005	-165.8470
48.700001	71.008	-166.1183
49.400002	71.015	-166.4837
50.000000	71.017	-166.7781
50.799999	71.012	-167.1508
51.500000	71.001	-167.4705
52.200001	70.989	-167.7885
53.000000	70.977	-168.1479
53.799999	70.967	-168.5018
54.500000	70.960	-168.8056
55.200001	70.954	-169.1027
56.000000	70.947	-169.4352
57.000000	70.937	-169.8431
58.000000	70.928	-170.2418
59.000000	70.917	-170.6284
60.000000	70.907	-171.0033
60.799999	70.899	-171.2974
61.500000	70.892	-171.5518
62.200001	70.886	-171.8027
63.000000	70.878	-172.0834
64.000000	70.870	-172.4249
65.000000	70.861	-172.7582
66.000000	70.852	-173.0849
67.000000	70.843	-173.4060
68.000000	70.832	-173.7213
69.000000	70.819	-174.0307
70.000000	70.804	-174.3339
71.000000	70.789	-174.6305
72.000000	70.777	-174.9201
73.000000	70.766	-175.2028
74.000000	70.756	-175.4793
75.000000	70.745	-175.7498
76.199997	70.729	-176.0654
77.500000	70.709	-176.3945
78.800003	70.690	-176.7070
80.000000	70.672	-176.9780
81.199997	70.656	-177.2334
82.500000	70.642	-177.4997
83.800003	70.630	-177.7650
85.000000	70.621	-178.0161
86.199997	70.611	-178.2751
87.500000	70.597	-178.5604
88.500000	70.586	-178.7781
90.000000	70.568	-179.0974
91.199997	70.553	-179.3477
92.500000	70.538	-179.6143
93.800003	70.523	-179.8764
95.000000	70.507	179.8846
96.199997	70.490	179.6479
97.500000	70.470	179.3961
98.800003	70.449	179.1505
100.000000	70.431	178.9288
101.500000	70.411	178.6582
103.000000	70.393	178.3942
104.400002	70.376	178.1535
106.000000	70.356	177.8846
107.500000	70.335	177.6374
109.000000	70.312	177.3959
110.599998	70.288	177.1483
112.000000	70.267	176.9403
113.800003	70.240	176.6829
115.000000	70.223	176.5168
117.199997	70.191	176.2225
118.000000	70.180	176.1177
120.599998	70.145	175.7800
122.000000	70.127	175.5975
124.099998	70.100	175.3232
125.000000	70.088	175.2062
126.500000	70.068	175.0131
128.000000	70.047	174.8239
131.500000	69.996	174.3974
132.000000	69.988	174.3379
134.000000	69.959	174.1035
136.000000	69.928	173.8750
138.000000	69.897	173.6514
140.000000	69.864	173.4335
143.000000	69.816	173.1184
145.000000	69.785	172.9153
147.500000	69.745	172.6682
150.000000	69.706	172.4285
152.500000	69.669	172.1968
155.000000	69.632	171.9735
157.500000	69.592	171.7585
160.000000	69.551	171.5513
162.500000	69.512	171.3522
165.000000	69.475	171.1607
167.500000	69.439	170.9764
170.000000	69.402	170.7987
172.500000	69.364	170.6260
175.000000	69.324	170.4576
177.500000	69.280	170.2940
180.000000	69.228	170.1370
182.500000	69.166	169.9875
185.000000	69.090	169.8474
187.500000	69.002	169.7192
190.000000	68.906	169.6057
192.500000	68.812	169.5121
195.000000	68.725	169.4471
197.500000	68.648	169.4202
200.000000	68.579	169.4413
203.000000	68.510	169.5455
206.000000	68.452	169.7598
209.000000	68.406	170.1145
212.000000	68.371	170.6243
214.000000	68.357	171.0402
218.000000	68.363	171.9508
220.000000	68.386	172.3723
224.000000	68.466	172.9728
227.000000	68.537	173.1363
230.000000	68.601	173.0677
233.000000	68.648	172.8338
236.000000	68.675	172.5089
240.000000	68.681	172.0337
243.000000	68.668	171.6909
247.000000	68.633	171.2862
250.000000	68.599	171.0277
254.000000	68.552	170.7395
258.000000	68.504	170.5085
262.000000	68.453	170.3256
265.000000	68.415	170.2147
269.000000	68.364	170.0952
272.000000	68.325	170.0227
276.000000	68.275	169.9455
280.000000	68.225	169.8876
285.000000	68.165	169.8381
290.000000	68.105	169.8101
295.000000	68.045	169.8010
300.000000	67.985	169.8108
304.000000	67.936	169.8309
307.000000	67.900	169.8525
311.000000	67.851	169.8889
315.000000	67.804	169.9334
320.000000	67.746	170.0003
325.000000	67.689	170.0777
330.000000	67.635	170.1636
335.000000	67.585	170.2572
340.000000	67.538	170.3595
345.000000	67.493	170.4715
350.000000	67.444	170.5930
355.000000	67.390	170.7230
360.000000	67.335	170.8626
365.000000	67.283	171.0127
370.000000	67.234	171.1732
375.000000	67.185	171.3443
382.000000	67.116	171.6015
387.000000	67.069	171.7952
395.000000	66.999	172.1177
400.000000	66.956	172.3278
406.000000	66.905	172.5928
412.000000	66.853	172.8768
418.000000	66.802	173.1832
425.000000	66.746	173.5680
431.000000	66.704	173.9135
437.000000	66.665	174.2640
444.000000	66.624	174.6699
450.000000	66.595	175.0084
455.000000	66.574	175.2797
462.000000	66.548	175.6384
468.000000	66.527	175.9272
475.000000	66.502	176.2484
482.000000	66.476	176.5571
487.000000	66.456	176.7712
494.000000	66.425	177.0646
500.000000	66.399	177.3130
508.000000	66.365	177.6418
515.000000	66.334	177.9282
522.000000	66.302	178.2147
530.000000	66.262	178.5485
538.000000	66.220	178.9004
545.000000	66.183	179.2293
552.000000	66.149	179.5721
560.000000	66.112	179.9639
570.000000	66.068	-179.5649
580.000000	66.016	-179.0996
590.000000	65.955	-178.5814
600.000000	65.890	-177.9521
608.000000	65.844	-177.3689
615.000000	65.811	-176.8267
622.000000	65.787	-176.2797
630.000000	65.766	-175.6682
640.000000	65.746	-174.9358
650.000000	65.731	-174.2338
660.000000	65.719	-173.5506
670.000000	65.710	-172.8746
680.000000	65.700	-172.1995
690.000000	65.690	-171.5237
700.000000	65.682	-170.8459
710.000000	65.676	-170.1655
720.000000	65.673	-169.4833
730.000000	65.672	-168.7985
740.000000	65.673	-168.1096
750.000000	65.677	-167.4155
762.000000	65.684	-166.5751
775.000000	65.694	-165.6551
788.000000	65.710	-164.7256
800.000000	65.729	-163.8606
812.000000	65.753	-162.9906
825.000000	65.783	-162.0472
838.000000	65.819	-161.1116
850.000000	65.858	-160.2633
862.000000	65.903	-159.4348
875.000000	65.958	-158.5615
885.000000	66.004	-157.9062
900.000000	66.075	-156.9461
912.000000	66.133	-156.1958
925.000000	66.199	-155.4009
938.000000	66.269	-154.6246
950.000000	66.336	-153.9257
962.000000	66.406	-153.2458
975.000000	66.485	-152.5329
988.000000	66.569	-151.8456
1000.000000	66.650	-151.2361
1015.000000	66.755	-150.5135
1030.000000	66.862	-149.8391
1044.000000	66.965	-149.2549
1060.000000	67.085	-148.6409
1075.000000	67.198	-148.1165
1090.000000	67.309	-147.6366
1106.000000	67.426	-147.1662
1120.000000	67.529	-146.7853
1138.000000	67.660	-146.3317
1150.000000	67.748	-146.0490
1172.000000	67.911	-145.5692
1180.000000	67.971	-145.4070
1206.000000	68.172	-144.9223
1220.000000	68.286	-144.6864
1241.000000	68.468	-144.3644
1250.000000	68.551	-144.2376
1265.000000	68.693	-144.0389
1280.000000	68.839	-143.8537
1315.000000	69.153	-143.4602
1320.000000	69.191	-143.4073
1340.000000	69.312	-143.2015
1360.000000	69.385	-143.0056
1380.000000	69.420	-142.8204
1400.000000	69.443	-142.6454
1430.000000	69.499	-142.4030
1450.000000	69.564	-142.2574
1475.000000	69.677	-142.0948
1500.000000	69.815	-141.9563
1525.000000	69.966	-141.8443
1550.000000	70.122	-141.7569
1575.000000	70.276	-141.6905
1600.000000	70.426	-141.6403
1625.000000	70.571	-141.6004
1650.000000	70.712	-141.5674
1675.000000	70.852	-141.5424
1700.000000	70.990	-141.5276
1725.000000	71.127	-141.5264
1750.000000	71.264	-141.5446
1775.000000	71.399	-141.5850
1800.000000	71.533	-141.6480
1825.000000	71.665	-141.7353
1850.000000	71.798	-141.8483
1875.000000	71.929	-141.9866
1900.000000	72.059	-142.1507
1925.000000	72.187	-142.3421
1950.000000	72.313	-142.5616
1975.000000	72.438	-142.8098
2000.000000	72.562	-143.0884
2030.000000	72.709	-143.4668
2060.000000	72.855	-143.8974
2090.000000	72.999	-144.3824
2120.000000	73.139	-144.9223
2140.000000	73.229	-145.3115
2180.000000	73.403	-146.1509
2200.000000	73.487	-146.5977
2240.000000	73.647	-147.5406
2270.000000	73.762	-148.2862
2300.000000	73.872	-149.0612
2330.000000	73.978	-149.8664
2360.000000	74.079	-150.7042
2400.000000	74.205	-151.8761
2430.000000	74.294	-152.8003
2470.000000	74.403	-154.0988
2500.000000	74.477	-155.1214
2540.000000	74.563	-156.5425
2580.000000	74.632	-158.0143
2620.000000	74.683	-159.5156
2650.000000	74.711	-160.6487
2690.000000	74.733	-162.1547
2720.000000	74.739	-163.2703
2760.000000	74.734	-164.7251
2800.000000	74.717	-166.1305
2850.000000	74.682	-167.8032
2900.000000	74.633	-169.3673
2950.000000	74.575	-170.8153
3000.000000	74.508	-172.1483
3040.000000	74.450	-173.1361
3070.000000	74.405	-173.8350
3110.000000	74.346	-174.7161
3150.000000	74.288	-175.5440
3200.000000	74.218	-176.5092
3250.000000	74.149	-177.4024
3300.000000	74.082	-178.2279
3350.000000	74.014	-178.9900
3400.000000	73.945	-179.6946
3450.000000	73.876	179.6519
3500.000000	73.806	179.0443
3550.000000	73.739	178.4759
3600.000000	73.679	177.9397
3650.000000	73.632	177.4256
3700.000000	73.604	176.9082
3750.000000	73.594	176.3528
3820.000000	73.601	175.4907
3870.000000	73.613	174.8224
3950.000000	73.635	173.6582
4000.000000	73.643	172.8601
4060.000000	73.637	171.8214
4120.000000	73.607	170.6968
4180.000000	73.547	169.5028
4250.000000	73.440	168.0546
4310.000000	73.323	166.7899
4370.000000	73.187	165.5248
4440.000000	73.015	164.0797
4500.000000	72.865	162.8852
4550.000000	72.740	161.9280
4620.000000	72.559	160.6689
4680.000000	72.399	159.6880
4750.000000	72.204	158.6653
4820.000000	71.999	157.7661
4870.000000	71.847	157.1968
4940.000000	71.626	156.4934
5000.000000	71.432	155.9697
5080.000000	71.163	155.3846
5150.000000	70.920	154.9792
5220.000000	70.668	154.6780
5300.000000	70.369	154.4805
5380.000000	70.062	154.4515
5450.000000	69.790	154.5681
5520.000000	69.519	154.8199
5600.000000	69.221	155.2716
5700.000000	68.871	156.0723
5800.000000	68.553	157.1216
5900.000000	68.278	158.3874
6000.000000	68.051	159.8279
6080.000000	67.898	161.0740
6150.000000	67.781	162.2047
6220.000000	67.679	163.3487
6300.000000	67.578	164.6455
6400.000000	67.477	166.2211
6500.000000	67.406	167.7234
6600.000000	67.364	169.1344
6700.000000	67.351	170.4433
6800.000000	67.369	171.6484
6900.000000	67.418	172.7495
7000.000000	67.499	173.7379
7100.000000	67.617	174.5880
7200.000000	67.781	175.2545
7300.000000	67.994	175.6810
7400.000000	68.254	175.8084
7500.000000	68.559	175.5769
7620.000000	68.964	174.7425
7750.000000	69.393	173.0594
7880.000000	69.728	170.5102
8000.000000	69.899	167.4180
8120.000000	69.916	163.7316
8250.000000	69.762	159.2808
8380.000000	69.452	154.6274
8500.000000	69.055	150.3891
8620.000000	68.573	146.3714
8750.000000	67.968	142.3695
8850.000000	67.444	139.5847
9000.000000	66.549	136.0236
9120.000000	65.735	133.8949
9250.000000	64.774	132.5417
9380.000000	63.776	132.2997
9500.000000	62.872	133.0158
9620.000000	62.026	134.4678
9750.000000	61.201	136.6304
9880.000000	60.475	139.1620
10000.000000	59.884	141.6575
10150.000000	59.229	144.8798
10300.000000	58.638	148.2576
10440.000000	58.138	151.5989
10600.000000	57.633	155.5951
10750.000000	57.228	159.4355
10900.000000	56.891	163.3062
11060.000000	56.601	167.4235
11200.000000	56.400	170.9945
11380.000000	56.199	175.5151
11500.000000	56.097	178.4667
11720.000000	55.971	-176.2621
11800.000000	55.942	-174.3809
12060.000000	55.900	-168.2849
12200.000000	55.906	-164.9247
12410.000000	55.963	-159.6413
12500.000000	56.013	-157.2686
12650.000000	56.137	-153.1869
12800.000000	56.317	-149.0182
13150.000000	56.948	-139.8314
13200.000000	57.064	-138.6894
13400.000000	57.612	-134.8350
13600.000000	58.326	-132.4385
13800.000000	59.206	-131.8220
14000.000000	60.175	-133.1926
14300.000000	61.541	-139.0421
14500.000000	62.216	-145.1285
14750.000000	62.633	-154.2177
15000.000000	62.526	-163.6210
15250.000000	61.934	-172.1836
15500.000000	60.917	-179.2435
15750.000000	59.533	175.8551
16000.000000	57.928	174.2500
16250.000000	56.468	176.5210
16500.000000	55.545	-179.1380
16750.000000	55.151	-175.2557
17000.000000	55.013	-172.6112
17250.000000	54.926	-170.8322
17500.000000	54.813	-169.4579
17750.000000	54.664	-168.1959
18000.000000	54.489	-166.8717
18250.000000	54.292	-165.3754
18500.000000	54.064	-163.6451
18750.000000	53.783	-161.6593
19000.000000	53.434	-159.3988
19250.000000	52.997	-156.8231
19500.000000	52.471	-153.9411
19750.000000	51.934	-151.0582
20000.000000	51.582	-149.1180
