* Measurement data measured by REW V5.31.3
* Source: Microphone (USB Sound Device        ), MICROPHONE (Master Volume), L, volume: 0.700
* Format: 256k Log Swept Sine, 1 sweep at -12.0 dBFS with no timing reference
* Dated: 29-Jan-2025 17:52:41
* REW Settings:
*  C-weighting compensation: Off
*  Target level: 75.0 dB
* Note: 
* Measurement: Dunu Falcon Ultra G L
* Smoothing: 1/12 octave
* Frequency Step: 1/48 octave
* Start Frequency: 20.300 Hz
*
* Freq(Hz)	SPL(dB)	Phase(degrees)
20.299999	71.410	-129.6427
20.600000	71.444	-130.2385
20.900000	71.486	-130.9832
21.200001	71.530	-131.7785
21.400000	71.559	-132.3178
21.799999	71.615	-133.4002
22.000000	71.642	-133.9385
22.400000	71.697	-135.0002
22.700001	71.736	-135.7774
23.000000	71.775	-136.5353
23.299999	71.812	-137.2742
23.600000	71.848	-137.9962
24.000000	71.892	-138.9379
24.299999	71.922	-139.6319
24.700001	71.959	-140.5437
25.000000	71.985	-141.2180
25.400000	72.017	-142.1033
25.799999	72.049	-142.9716
26.200001	72.078	-143.8211
26.500000	72.099	-144.4455
26.900000	72.125	-145.2610
27.200001	72.142	-145.8606
27.600000	72.164	-146.6457
28.000000	72.185	-147.4169
28.500000	72.209	-148.3648
29.000000	72.230	-149.2959
29.500000	72.249	-150.2084
30.000000	72.266	-151.0996
30.400000	72.278	-151.7964
30.700001	72.285	-152.3096
31.100000	72.295	-152.9822
31.500000	72.303	-153.6428
32.000000	72.313	-154.4531
32.500000	72.322	-155.2475
33.000000	72.330	-156.0264
33.500000	72.337	-156.7898
34.000000	72.342	-157.5375
34.500000	72.345	-158.2695
35.000000	72.347	-158.9855
35.500000	72.346	-159.6855
36.000000	72.344	-160.3708
36.500000	72.342	-161.0434
37.000000	72.340	-161.7047
37.500000	72.336	-162.3550
38.200001	72.327	-163.2448
38.700001	72.318	-163.8649
39.500000	72.303	-164.8325
40.000000	72.292	-165.4232
40.599998	72.279	-166.1180
41.200001	72.267	-166.7973
41.799999	72.256	-167.4619
42.500000	72.243	-168.2202
43.099998	72.230	-168.8553
43.700001	72.215	-169.4776
44.400002	72.196	-170.1890
45.000000	72.179	-170.7865
45.500000	72.163	-171.2745
46.200001	72.140	-171.9406
46.799999	72.120	-172.4966
47.500000	72.098	-173.1309
48.200001	72.079	-173.7521
48.700001	72.068	-174.1879
49.400002	72.054	-174.7868
50.000000	72.038	-175.2894
50.799999	72.006	-175.9428
51.500000	71.971	-176.4982
52.200001	71.935	-177.0403
53.000000	71.896	-177.6472
53.799999	71.859	-178.2427
54.500000	71.829	-178.7536
55.200001	71.799	-179.2532
56.000000	71.765	-179.8099
57.000000	71.721	179.5134
58.000000	71.677	178.8565
59.000000	71.632	178.2213
60.000000	71.587	177.6073
60.799999	71.551	177.1295
61.500000	71.520	176.7203
62.200001	71.488	176.3190
63.000000	71.453	175.8703
64.000000	71.408	175.3237
65.000000	71.364	174.7936
66.000000	71.319	174.2814
67.000000	71.274	173.7854
68.000000	71.227	173.3023
69.000000	71.178	172.8302
70.000000	71.128	172.3693
71.000000	71.078	171.9214
72.000000	71.031	171.4885
73.000000	70.985	171.0715
74.000000	70.939	170.6686
75.000000	70.893	170.2781
76.199997	70.836	169.8250
77.500000	70.774	169.3529
78.800003	70.712	168.9019
80.000000	70.654	168.5060
81.199997	70.597	168.1317
82.500000	70.535	167.7523
83.800003	70.476	167.3985
85.000000	70.425	167.0901
86.199997	70.375	166.7906
87.500000	70.323	166.4618
88.500000	70.284	166.2002
90.000000	70.224	165.7986
91.199997	70.173	165.4799
92.500000	70.118	165.1484
93.800003	70.061	164.8373
95.000000	70.007	164.5673
96.199997	69.953	164.3113
97.500000	69.893	164.0497
98.800003	69.833	163.8062
100.000000	69.780	163.5988
101.500000	69.721	163.3564
103.000000	69.668	163.1182
104.400002	69.621	162.8894
106.000000	69.566	162.6162
107.500000	69.513	162.3522
109.000000	69.458	162.0886
110.599998	69.398	161.8169
112.000000	69.344	161.5913
113.800003	69.273	161.3189
115.000000	69.225	161.1472
117.199997	69.136	160.8522
118.000000	69.104	160.7518
120.599998	69.001	160.4523
122.000000	68.946	160.3070
124.099998	68.867	160.1048
125.000000	68.833	160.0228
126.500000	68.777	159.8918
128.000000	68.721	159.7685
131.500000	68.592	159.5074
132.000000	68.574	159.4730
134.000000	68.501	159.3432
136.000000	68.428	159.2256
138.000000	68.356	159.1200
140.000000	68.283	159.0273
143.000000	68.175	158.9136
145.000000	68.105	158.8514
147.500000	68.017	158.7877
150.000000	67.932	158.7420
152.500000	67.850	158.7194
155.000000	67.770	158.7224
157.500000	67.689	158.7501
160.000000	67.610	158.8003
162.500000	67.537	158.8687
165.000000	67.471	158.9448
167.500000	67.410	159.0141
170.000000	67.350	159.0658
172.500000	67.289	159.1016
175.000000	67.224	159.1346
177.500000	67.152	159.1801
180.000000	67.070	159.2521
182.500000	66.976	159.3619
185.000000	66.869	159.5199
187.500000	66.752	159.7364
190.000000	66.632	160.0202
192.500000	66.520	160.3792
195.000000	66.429	160.8180
197.500000	66.363	161.3299
200.000000	66.329	161.8908
203.000000	66.333	162.5668
206.000000	66.382	163.1511
209.000000	66.459	163.5432
212.000000	66.539	163.6828
214.000000	66.582	163.6445
218.000000	66.625	163.3690
220.000000	66.626	163.1880
224.000000	66.595	162.8281
227.000000	66.549	162.6006
230.000000	66.492	162.4290
233.000000	66.429	162.3158
236.000000	66.364	162.2579
240.000000	66.278	162.2561
243.000000	66.214	162.3015
247.000000	66.129	162.4069
250.000000	66.067	162.5097
254.000000	65.990	162.6689
258.000000	65.917	162.8493
262.000000	65.847	163.0490
265.000000	65.796	163.2099
269.000000	65.731	163.4346
272.000000	65.684	163.6095
276.000000	65.622	163.8515
280.000000	65.563	164.1023
285.000000	65.492	164.4256
290.000000	65.423	164.7587
295.000000	65.356	165.1012
300.000000	65.290	165.4525
304.000000	65.238	165.7380
307.000000	65.199	165.9543
311.000000	65.147	166.2465
315.000000	65.097	166.5440
320.000000	65.037	166.9224
325.000000	64.980	167.3049
330.000000	64.925	167.6900
335.000000	64.875	168.0800
340.000000	64.828	168.4789
345.000000	64.783	168.8896
350.000000	64.734	169.3134
355.000000	64.681	169.7536
360.000000	64.628	170.2129
365.000000	64.581	170.6920
370.000000	64.539	171.1916
375.000000	64.500	171.7113
382.000000	64.454	172.4648
387.000000	64.428	173.0132
395.000000	64.405	173.8892
400.000000	64.402	174.4196
406.000000	64.408	175.0070
412.000000	64.421	175.5032
418.000000	64.432	175.8899
425.000000	64.435	176.2336
431.000000	64.426	176.4911
437.000000	64.407	176.7583
444.000000	64.376	177.1074
450.000000	64.348	177.4409
455.000000	64.326	177.7392
462.000000	64.297	178.1811
468.000000	64.274	178.5761
475.000000	64.249	179.0496
482.000000	64.225	179.5310
487.000000	64.207	179.8775
494.000000	64.182	-179.6338
500.000000	64.163	-179.2122
508.000000	64.140	-178.6465
515.000000	64.122	-178.1456
522.000000	64.104	-177.6370
530.000000	64.085	-177.0484
538.000000	64.067	-176.4559
545.000000	64.053	-175.9359
552.000000	64.041	-175.4156
560.000000	64.032	-174.8216
570.000000	64.023	-174.0807
580.000000	64.016	-173.3427
590.000000	64.010	-172.6070
600.000000	64.005	-171.8717
608.000000	64.001	-171.2827
615.000000	63.998	-170.7666
622.000000	63.997	-170.2503
630.000000	63.998	-169.6597
640.000000	64.000	-168.9185
650.000000	64.007	-168.1730
660.000000	64.017	-167.4232
670.000000	64.031	-166.6699
680.000000	64.046	-165.9143
690.000000	64.062	-165.1584
700.000000	64.080	-164.4058
710.000000	64.102	-163.6591
720.000000	64.127	-162.9182
730.000000	64.153	-162.1823
740.000000	64.183	-161.4486
750.000000	64.215	-160.7137
762.000000	64.255	-159.8279
775.000000	64.301	-158.8633
788.000000	64.352	-157.8949
800.000000	64.404	-157.0002
812.000000	64.462	-156.1102
825.000000	64.529	-155.1622
838.000000	64.602	-154.2411
850.000000	64.673	-153.4202
862.000000	64.749	-152.6298
875.000000	64.836	-151.8032
885.000000	64.904	-151.1837
900.000000	65.009	-150.2759
912.000000	65.094	-149.5685
925.000000	65.189	-148.8243
938.000000	65.286	-148.1070
950.000000	65.379	-147.4711
962.000000	65.474	-146.8616
975.000000	65.580	-146.2321
988.000000	65.689	-145.6351
1000.000000	65.791	-145.1128
1015.000000	65.920	-144.4997
1030.000000	66.050	-143.9321
1044.000000	66.173	-143.4447
1060.000000	66.316	-142.9391
1075.000000	66.449	-142.5133
1090.000000	66.581	-142.1298
1106.000000	66.721	-141.7626
1120.000000	66.843	-141.4743
1138.000000	67.001	-141.1496
1150.000000	67.107	-140.9629
1172.000000	67.300	-140.6804
1180.000000	67.371	-140.5960
1206.000000	67.605	-140.3859
1220.000000	67.735	-140.3110
1241.000000	67.939	-140.2443
1250.000000	68.030	-140.2327
1265.000000	68.185	-140.2395
1280.000000	68.341	-140.2818
1315.000000	68.658	-140.4831
1320.000000	68.693	-140.5143
1340.000000	68.796	-140.6157
1360.000000	68.842	-140.6512
1380.000000	68.849	-140.6059
1400.000000	68.846	-140.4895
1430.000000	68.873	-140.2362
1450.000000	68.928	-140.0530
1475.000000	69.036	-139.8409
1500.000000	69.176	-139.6643
1525.000000	69.334	-139.5276
1550.000000	69.499	-139.4294
1575.000000	69.665	-139.3667
1600.000000	69.829	-139.3375
1625.000000	69.990	-139.3405
1650.000000	70.149	-139.3751
1675.000000	70.306	-139.4423
1700.000000	70.460	-139.5441
1725.000000	70.613	-139.6822
1750.000000	70.763	-139.8572
1775.000000	70.910	-140.0686
1800.000000	71.053	-140.3166
1825.000000	71.194	-140.6016
1850.000000	71.332	-140.9228
1875.000000	71.467	-141.2785
1900.000000	71.598	-141.6664
1925.000000	71.726	-142.0856
1950.000000	71.849	-142.5374
1975.000000	71.970	-143.0241
2000.000000	72.088	-143.5485
2030.000000	72.226	-144.2312
2060.000000	72.358	-144.9743
2090.000000	72.483	-145.7747
2120.000000	72.600	-146.6267
2140.000000	72.673	-147.2199
2180.000000	72.807	-148.4552
2200.000000	72.868	-149.0920
2240.000000	72.979	-150.3949
2270.000000	73.052	-151.3913
2300.000000	73.117	-152.3991
2330.000000	73.175	-153.4158
2360.000000	73.225	-154.4401
2400.000000	73.276	-155.8147
2430.000000	73.304	-156.8462
2470.000000	73.327	-158.2127
2500.000000	73.335	-159.2288
2540.000000	73.334	-160.5617
2580.000000	73.320	-161.8540
2620.000000	73.294	-163.0932
2650.000000	73.267	-163.9810
2690.000000	73.222	-165.1017
2720.000000	73.183	-165.8917
2760.000000	73.125	-166.8744
2800.000000	73.062	-167.7739
2850.000000	72.981	-168.7803
2900.000000	72.897	-169.6578
2950.000000	72.813	-170.4111
3000.000000	72.729	-171.0469
3040.000000	72.663	-171.4763
3070.000000	72.617	-171.7561
3110.000000	72.558	-172.0786
3150.000000	72.506	-172.3509
3200.000000	72.452	-172.6330
3250.000000	72.408	-172.8641
3300.000000	72.374	-173.0579
3350.000000	72.347	-173.2278
3400.000000	72.325	-173.3857
3450.000000	72.308	-173.5415
3500.000000	72.294	-173.7038
3550.000000	72.287	-173.8798
3600.000000	72.287	-174.0766
3650.000000	72.301	-174.3027
3700.000000	72.329	-174.5679
3750.000000	72.374	-174.8808
3820.000000	72.460	-175.4135
3870.000000	72.532	-175.8710
3950.000000	72.653	-176.7533
4000.000000	72.725	-177.4076
4060.000000	72.798	-178.3051
4120.000000	72.851	-179.3291
4180.000000	72.880	179.5191
4250.000000	72.881	178.0178
4310.000000	72.858	176.6041
4370.000000	72.815	175.0853
4440.000000	72.747	173.2025
4500.000000	72.676	171.5182
4550.000000	72.606	170.0842
4620.000000	72.489	168.0642
4680.000000	72.364	166.3543
4750.000000	72.186	164.4265
4820.000000	71.971	162.6138
4870.000000	71.795	161.4122
4940.000000	71.521	159.8854
5000.000000	71.265	158.7381
5080.000000	70.899	157.4582
5150.000000	70.561	156.5804
5220.000000	70.211	155.9294
5300.000000	69.801	155.4587
5380.000000	69.384	155.2744
5450.000000	69.017	155.3469
5520.000000	68.656	155.6338
5600.000000	68.265	156.1929
5700.000000	67.816	157.1298
5800.000000	67.405	158.2498
5900.000000	67.030	159.5584
6000.000000	66.691	161.0710
6080.000000	66.440	162.4216
6150.000000	66.232	163.6945
6220.000000	66.034	165.0428
6300.000000	65.821	166.6640
6400.000000	65.580	168.7912
6500.000000	65.373	171.0065
6600.000000	65.204	173.2866
6700.000000	65.081	175.6081
6800.000000	65.007	177.9461
6900.000000	64.986	-179.7279
7000.000000	65.020	-177.4510
7100.000000	65.114	-175.2738
7200.000000	65.275	-173.2579
7300.000000	65.507	-171.4663
7400.000000	65.808	-169.9594
7500.000000	66.177	-168.7966
7620.000000	66.694	-167.9439
7750.000000	67.292	-167.8136
7880.000000	67.857	-168.6637
8000.000000	68.302	-170.4459
8120.000000	68.647	-173.2628
8250.000000	68.892	-177.4749
8380.000000	68.980	177.2670
8500.000000	68.900	171.7854
8620.000000	68.646	166.0969
8750.000000	68.172	160.1823
8850.000000	67.680	156.0801
9000.000000	66.775	150.9533
9120.000000	65.945	147.8150
9250.000000	64.971	145.3635
9380.000000	63.940	143.8929
9500.000000	62.958	143.4679
9620.000000	61.977	144.0088
9750.000000	60.956	145.6730
9880.000000	60.022	148.3003
10000.000000	59.262	151.3522
10150.000000	58.460	155.6854
10300.000000	57.810	160.3151
10440.000000	57.320	164.7404
10600.000000	56.876	169.8175
10750.000000	56.566	174.5410
10900.000000	56.355	179.1921
11060.000000	56.233	-175.9682
11200.000000	56.210	-171.8762
11380.000000	56.282	-166.8773
11500.000000	56.391	-163.7508
11720.000000	56.721	-158.5554
11800.000000	56.882	-156.8706
12060.000000	57.533	-152.3320
12200.000000	57.949	-150.5979
12410.000000	58.621	-149.1191
12500.000000	58.914	-148.9422
12650.000000	59.383	-149.2946
12800.000000	59.795	-150.4606
13150.000000	60.326	-156.0087
13200.000000	60.338	-157.0551
13400.000000	60.224	-161.6189
13600.000000	59.887	-166.4223
13800.000000	59.392	-171.0216
14000.000000	58.796	-175.0697
14300.000000	57.815	-179.7046
14500.000000	57.159	178.1743
14750.000000	56.369	176.3798
15000.000000	55.608	175.1660
15250.000000	54.836	174.1504
15500.000000	53.977	173.1188
15750.000000	52.996	172.1484
16000.000000	51.939	171.5374
16250.000000	50.901	171.6147
16500.000000	49.958	172.5800
16750.000000	49.144	174.4018
17000.000000	48.460	176.8611
17250.000000	47.882	179.6848
17500.000000	47.381	-177.3521
17750.000000	46.942	-174.3824
18000.000000	46.562	-171.4657
18250.000000	46.234	-168.6345
18500.000000	45.933	-165.9506
18750.000000	45.625	-163.5042
19000.000000	45.278	-161.3805
19250.000000	44.864	-159.6601
19500.000000	44.367	-158.3784
19750.000000	43.848	-157.5205
20000.000000	43.501	-157.0855
