* Measurement data measured by REW V5.31.3
* Source: Microphone (4- USB Audio Device), MICROPHONE (Master Volume), R, volume: 0.250
* Format: 256k Log Swept Sine, 1 sweep at -12.0 dBFS with no timing reference
* Dated: 24-Aug-2024 14:42:14
* REW Settings:
*  C-weighting compensation: Off
*  Target level: 75.0 dB
* Note: 
* Measurement: Earfun Air 2 NC (Anc off)
* Smoothing: 1/12 octave
* Frequency Step: 1/48 octave
* Start Frequency: 20.300 Hz
*
* Freq(Hz)	SPL(dB)	Phase(degrees)
20.299999	76.593	-115.9620
20.600000	76.669	-116.5314
20.900000	76.757	-117.2237
21.200001	76.840	-117.9466
21.400000	76.889	-118.4329
21.799999	76.973	-119.4207
22.000000	77.010	-119.9292
22.400000	77.077	-120.9941
22.700001	77.128	-121.8460
23.000000	77.183	-122.7466
23.299999	77.242	-123.6884
23.600000	77.306	-124.6549
24.000000	77.398	-125.9429
24.299999	77.472	-126.8808
24.700001	77.572	-128.0680
25.000000	77.648	-128.9068
25.400000	77.744	-129.9660
25.799999	77.831	-130.9747
26.200001	77.906	-131.9480
26.500000	77.955	-132.6600
26.900000	78.014	-133.5910
27.200001	78.057	-134.2808
27.600000	78.115	-135.1991
28.000000	78.176	-136.1234
28.500000	78.253	-137.2858
29.000000	78.325	-138.4357
29.500000	78.389	-139.5477
30.000000	78.446	-140.6120
30.400000	78.488	-141.4367
30.700001	78.519	-142.0475
31.100000	78.560	-142.8611
31.500000	78.600	-143.6791
32.000000	78.646	-144.7032
32.500000	78.687	-145.7100
33.000000	78.724	-146.6838
33.500000	78.759	-147.6299
34.000000	78.793	-148.5660
34.500000	78.824	-149.4955
35.000000	78.851	-150.4009
35.500000	78.877	-151.2693
36.000000	78.902	-152.1145
36.500000	78.926	-152.9628
37.000000	78.946	-153.8186
37.500000	78.963	-154.6593
38.200001	78.993	-155.7827
38.700001	79.022	-156.5668
39.500000	79.060	-157.8228
40.000000	79.067	-158.5822
40.599998	79.062	-159.4455
41.200001	79.051	-160.2895
41.799999	79.043	-161.1524
42.500000	79.035	-162.1622
43.099998	79.028	-162.9936
43.700001	79.019	-163.8011
44.400002	78.999	-164.7467
45.000000	78.971	-165.5553
45.500000	78.946	-166.2080
46.200001	78.919	-167.0754
46.799999	78.900	-167.7820
47.500000	78.875	-168.5655
48.200001	78.839	-169.3024
48.700001	78.814	-169.8188
49.400002	78.787	-170.5788
50.000000	78.769	-171.2843
50.799999	78.741	-172.2361
51.500000	78.703	-172.9892
52.200001	78.653	-173.6433
53.000000	78.590	-174.3224
53.799999	78.530	-174.9865
54.500000	78.481	-175.5634
55.200001	78.435	-176.1219
56.000000	78.384	-176.7328
57.000000	78.318	-177.4621
58.000000	78.248	-178.1277
59.000000	78.178	-178.7312
60.000000	78.107	-179.3506
60.799999	78.049	-179.9006
61.500000	77.995	179.5869
62.200001	77.938	179.0804
63.000000	77.869	178.5585
64.000000	77.783	178.0350
65.000000	77.709	177.5964
66.000000	77.641	177.1530
67.000000	77.564	176.7209
68.000000	77.478	176.3190
69.000000	77.386	175.9127
70.000000	77.294	175.5237
71.000000	77.208	175.2193
72.000000	77.128	175.0024
73.000000	77.044	174.8128
74.000000	76.950	174.6018
75.000000	76.852	174.3663
76.199997	76.743	174.1128
77.500000	76.636	173.9181
78.800003	76.522	173.7260
80.000000	76.406	173.4935
81.199997	76.289	173.2616
82.500000	76.171	173.0600
83.800003	76.070	172.8914
85.000000	75.984	172.7727
86.199997	75.888	172.7002
87.500000	75.772	172.6620
88.500000	75.685	172.6687
90.000000	75.562	172.7048
91.199997	75.456	172.7024
92.500000	75.331	172.7026
93.800003	75.205	172.7794
95.000000	75.092	172.9105
96.199997	74.980	173.0688
97.500000	74.854	173.2717
98.800003	74.721	173.4899
100.000000	74.600	173.7058
101.500000	74.464	174.0398
103.000000	74.337	174.4687
104.400002	74.218	174.9422
106.000000	74.089	175.5648
107.500000	73.982	176.2446
109.000000	73.887	176.9756
110.599998	73.801	177.7629
112.000000	73.743	178.4594
113.800003	73.688	179.3573
115.000000	73.663	179.9208
117.199997	73.639	-179.2706
118.000000	73.633	-179.0614
120.599998	73.583	-178.5286
122.000000	73.529	-178.3050
124.099998	73.430	-178.0039
125.000000	73.386	-177.8564
126.500000	73.314	-177.5721
128.000000	73.242	-177.2377
131.500000	73.071	-176.2427
132.000000	73.046	-176.0821
134.000000	72.943	-175.3840
136.000000	72.839	-174.6058
138.000000	72.737	-173.8274
140.000000	72.633	-173.1044
143.000000	72.480	-172.0912
145.000000	72.386	-171.3830
147.500000	72.277	-170.3760
150.000000	72.174	-169.3170
152.500000	72.079	-168.2999
155.000000	71.985	-167.2419
157.500000	71.892	-166.0667
160.000000	71.802	-164.8719
162.500000	71.713	-163.7257
165.000000	71.624	-162.6015
167.500000	71.537	-161.4874
170.000000	71.452	-160.3699
172.500000	71.362	-159.2174
175.000000	71.265	-158.0127
177.500000	71.167	-156.7754
180.000000	71.076	-155.5273
182.500000	70.998	-154.2682
185.000000	70.933	-153.0159
187.500000	70.875	-151.7963
190.000000	70.821	-150.5952
192.500000	70.774	-149.3698
195.000000	70.734	-148.1151
197.500000	70.697	-146.8583
200.000000	70.660	-145.6339
203.000000	70.617	-144.2318
206.000000	70.577	-142.9001
209.000000	70.550	-141.6253
212.000000	70.537	-140.3721
214.000000	70.532	-139.5316
218.000000	70.515	-137.8132
220.000000	70.501	-136.9411
224.000000	70.470	-135.1791
227.000000	70.456	-133.8396
230.000000	70.447	-132.5285
233.000000	70.438	-131.2775
236.000000	70.427	-130.0503
240.000000	70.405	-128.3629
243.000000	70.381	-127.0775
247.000000	70.345	-125.3949
250.000000	70.322	-124.1528
254.000000	70.300	-122.5016
258.000000	70.287	-120.8438
262.000000	70.273	-119.2049
265.000000	70.261	-118.0106
269.000000	70.239	-116.4914
272.000000	70.219	-115.4125
276.000000	70.192	-114.0254
280.000000	70.161	-112.7109
285.000000	70.120	-111.2076
290.000000	70.087	-109.7664
295.000000	70.061	-108.3036
300.000000	70.044	-106.8741
304.000000	70.037	-105.7759
307.000000	70.033	-104.9366
311.000000	70.023	-103.7801
315.000000	70.008	-102.6169
320.000000	69.983	-101.1845
325.000000	69.961	-99.7366
330.000000	69.946	-98.2851
335.000000	69.936	-96.9377
340.000000	69.930	-95.7527
345.000000	69.921	-94.5891
350.000000	69.911	-93.3409
355.000000	69.899	-92.0392
360.000000	69.887	-90.7554
365.000000	69.877	-89.5328
370.000000	69.866	-88.3786
375.000000	69.855	-87.2641
382.000000	69.832	-85.7246
387.000000	69.808	-84.6024
395.000000	69.771	-82.8387
400.000000	69.754	-81.8181
406.000000	69.740	-80.6842
412.000000	69.730	-79.5855
418.000000	69.717	-78.4110
425.000000	69.708	-76.8829
431.000000	69.711	-75.4941
437.000000	69.713	-74.1096
444.000000	69.694	-72.5364
450.000000	69.669	-71.2364
455.000000	69.652	-70.2008
462.000000	69.638	-68.7844
468.000000	69.635	-67.5678
475.000000	69.634	-66.1590
482.000000	69.626	-64.7529
487.000000	69.612	-63.7461
494.000000	69.583	-62.3494
500.000000	69.560	-61.2024
508.000000	69.539	-59.7198
515.000000	69.528	-58.3681
522.000000	69.518	-56.9546
530.000000	69.505	-55.3500
538.000000	69.489	-53.7951
545.000000	69.479	-52.4446
552.000000	69.472	-51.0533
560.000000	69.465	-49.4218
570.000000	69.457	-47.3575
580.000000	69.436	-45.3585
590.000000	69.401	-43.4557
600.000000	69.369	-41.5631
608.000000	69.352	-40.0442
615.000000	69.342	-38.7293
622.000000	69.335	-37.4510
630.000000	69.330	-36.0523
640.000000	69.323	-34.3256
650.000000	69.309	-32.5107
660.000000	69.290	-30.6015
670.000000	69.279	-28.6662
680.000000	69.282	-26.7697
690.000000	69.290	-24.8895
700.000000	69.295	-22.9991
710.000000	69.288	-21.1356
720.000000	69.270	-19.3295
730.000000	69.254	-17.5606
740.000000	69.252	-15.7980
750.000000	69.271	-14.0059
762.000000	69.304	-11.7820
775.000000	69.321	-9.3387
788.000000	69.326	-6.9405
800.000000	69.337	-4.7375
812.000000	69.357	-2.5178
825.000000	69.389	-0.0905
838.000000	69.421	2.3645
850.000000	69.445	4.6064
862.000000	69.470	6.8131
875.000000	69.514	9.1664
885.000000	69.561	10.9238
900.000000	69.637	13.4809
912.000000	69.692	15.5405
925.000000	69.751	17.7918
938.000000	69.816	19.9725
950.000000	69.883	21.8640
962.000000	69.953	23.6895
975.000000	70.033	25.6870
988.000000	70.119	27.7317
1000.000000	70.200	29.6434
1015.000000	70.301	32.0186
1030.000000	70.401	34.3018
1044.000000	70.489	36.3526
1060.000000	70.583	38.6832
1075.000000	70.673	40.9144
1090.000000	70.777	43.1858
1106.000000	70.899	45.5355
1120.000000	70.996	47.4623
1138.000000	71.099	49.8378
1150.000000	71.166	51.4301
1172.000000	71.314	54.4287
1180.000000	71.374	55.5347
1206.000000	71.570	59.1328
1220.000000	71.667	61.0843
1241.000000	71.800	64.0025
1250.000000	71.852	65.2515
1265.000000	71.937	67.3600
1280.000000	72.020	69.5211
1315.000000	72.225	74.7776
1320.000000	72.254	75.5426
1340.000000	72.370	78.5860
1360.000000	72.481	81.5491
1380.000000	72.596	84.3724
1400.000000	72.716	87.0070
1430.000000	72.895	90.5911
1450.000000	73.020	92.8367
1475.000000	73.179	95.6061
1500.000000	73.349	98.3203
1525.000000	73.550	100.9195
1550.000000	73.763	103.3852
1575.000000	73.964	105.7369
1600.000000	74.150	108.0267
1625.000000	74.332	110.2819
1650.000000	74.520	112.5750
1675.000000	74.724	114.9649
1700.000000	74.935	117.4028
1725.000000	75.131	119.7757
1750.000000	75.314	122.0098
1775.000000	75.500	124.0640
1800.000000	75.694	125.9881
1825.000000	75.890	127.8922
1850.000000	76.082	129.8371
1875.000000	76.271	131.8188
1900.000000	76.463	133.7802
1925.000000	76.661	135.6760
1950.000000	76.860	137.4675
1975.000000	77.064	139.1535
2000.000000	77.279	140.7720
2030.000000	77.551	142.6836
2060.000000	77.826	144.5463
2090.000000	78.093	146.2711
2120.000000	78.344	147.7867
2140.000000	78.503	148.6821
2180.000000	78.805	150.2808
2200.000000	78.947	151.0156
2240.000000	79.212	152.3791
2270.000000	79.404	153.3102
2300.000000	79.599	154.1993
2330.000000	79.794	155.1112
2360.000000	79.984	156.0565
2400.000000	80.215	157.2954
2430.000000	80.373	158.1487
2470.000000	80.574	159.1813
2500.000000	80.716	159.9411
2540.000000	80.893	161.0171
2580.000000	81.046	162.1189
2620.000000	81.160	163.1595
2650.000000	81.222	163.9376
2690.000000	81.283	165.0419
2720.000000	81.308	165.9469
2760.000000	81.314	167.2621
2800.000000	81.300	168.6405
2850.000000	81.262	170.3523
2900.000000	81.198	172.1536
2950.000000	81.124	174.2947
3000.000000	81.043	176.8564
3040.000000	80.966	179.0931
3070.000000	80.904	-179.1918
3110.000000	80.815	-176.9009
3150.000000	80.717	-174.5978
3200.000000	80.587	-171.6520
3250.000000	80.457	-168.5536
3300.000000	80.331	-165.2791
3350.000000	80.211	-161.9312
3400.000000	80.093	-158.6524
3450.000000	79.984	-155.5668
3500.000000	79.883	-152.8267
3550.000000	79.787	-150.5164
3600.000000	79.693	-148.5495
3650.000000	79.606	-146.7836
3700.000000	79.529	-145.1516
3750.000000	79.465	-143.6395
3820.000000	79.399	-141.7714
3870.000000	79.358	-140.6911
3950.000000	79.286	-139.2761
4000.000000	79.245	-138.3886
4060.000000	79.204	-137.3221
4120.000000	79.171	-136.3905
4180.000000	79.154	-135.6365
4250.000000	79.157	-135.0511
4310.000000	79.173	-134.8109
4370.000000	79.200	-134.6676
4440.000000	79.250	-134.4216
4500.000000	79.305	-134.2478
4550.000000	79.357	-134.2380
4620.000000	79.444	-134.3942
4680.000000	79.523	-134.6678
4750.000000	79.607	-135.1959
4820.000000	79.679	-135.9659
4870.000000	79.718	-136.7082
4940.000000	79.743	-138.1039
5000.000000	79.728	-139.6953
5080.000000	79.636	-142.4710
5150.000000	79.464	-145.3824
5220.000000	79.199	-148.3500
5300.000000	78.797	-151.3502
5380.000000	78.313	-153.5962
5450.000000	77.849	-154.7914
5520.000000	77.380	-155.3652
5600.000000	76.869	-155.6378
5700.000000	76.305	-155.9129
5800.000000	75.851	-156.1912
5900.000000	75.507	-156.3237
6000.000000	75.257	-156.1753
6080.000000	75.124	-155.7598
6150.000000	75.044	-155.3229
6220.000000	74.990	-154.9574
6300.000000	74.957	-154.6507
6400.000000	74.963	-154.4260
6500.000000	75.022	-154.6852
6600.000000	75.122	-155.8841
6700.000000	75.276	-157.7864
6800.000000	75.499	-159.6818
6900.000000	75.801	-161.1061
7000.000000	76.188	-162.1931
7100.000000	76.652	-163.7001
7200.000000	77.170	-166.4802
7300.000000	77.718	-170.7781
7400.000000	78.260	-176.2991
7500.000000	78.732	177.1094
7620.000000	79.090	167.6936
7750.000000	79.080	155.7125
7880.000000	78.581	142.3993
8000.000000	77.736	130.0269
8120.000000	76.644	118.6647
8250.000000	75.321	107.9951
8380.000000	73.988	99.4459
8500.000000	72.830	93.4947
8620.000000	71.772	89.0214
8750.000000	70.747	85.2273
8850.000000	70.043	82.6593
9000.000000	69.125	78.8606
9120.000000	68.505	75.6202
9250.000000	67.952	71.8932
9380.000000	67.515	67.9469
9500.000000	67.194	64.0925
9620.000000	66.942	60.2115
9750.000000	66.744	56.1473
9880.000000	66.608	52.0608
10000.000000	66.523	48.0293
10150.000000	66.460	42.5573
10300.000000	66.427	36.7316
10440.000000	66.419	31.2070
10600.000000	66.436	24.9727
10750.000000	66.493	19.2095
10900.000000	66.615	13.2902
11060.000000	66.844	6.3612
11200.000000	67.149	-0.3808
11380.000000	67.714	-10.0066
11500.000000	68.209	-17.0874
11720.000000	69.359	-31.8858
11800.000000	69.831	-38.1563
12060.000000	71.350	-63.0743
12200.000000	72.010	-78.9707
12410.000000	72.528	-104.7724
12500.000000	72.518	-116.2769
12650.000000	72.165	-135.6653
12800.000000	71.426	-154.7435
13150.000000	68.757	166.0665
13200.000000	68.331	161.3010
13400.000000	66.654	144.2802
13600.000000	65.133	130.1719
13800.000000	63.845	118.2188
14000.000000	62.814	107.2801
14300.000000	61.777	91.3063
14500.000000	61.431	80.0739
14750.000000	61.371	63.6970
15000.000000	61.707	43.9926
15250.000000	62.320	21.1759
15500.000000	62.922	-4.4142
15750.000000	63.140	-32.0083
16000.000000	62.696	-60.2847
16250.000000	61.527	-87.9536
16500.000000	59.779	-113.5629
16750.000000	57.709	-135.4721
17000.000000	55.571	-153.7222
17250.000000	53.581	-169.4650
17500.000000	51.887	177.1523
17750.000000	50.528	167.2209
18000.000000	49.460	161.1985
18250.000000	48.615	157.8733
18500.000000	47.941	155.6820
18750.000000	47.391	153.4660
19000.000000	46.910	150.8068
19250.000000	46.459	148.1387
19500.000000	46.048	146.3412
19750.000000	45.739	145.9886
20000.000000	45.585	146.4244
