* Measurement data measured by REW V5.31.3
* Source: Microphone (4- USB Audio Device), MICROPHONE (Master Volume), R, volume: 0.250
* Format: 256k Log Swept Sine, 1 sweep at -12.0 dBFS with no timing reference
* Dated: 24-Aug-2024 14:36:19
* REW Settings:
*  C-weighting compensation: Off
*  Target level: 75.0 dB
* Note: 
* Measurement: Earfun Air 2 NC R
* Smoothing: 1/12 octave
* Frequency Step: 1/48 octave
* Start Frequency: 20.300 Hz
*
* Freq(Hz)	SPL(dB)	Phase(degrees)
20.299999	78.606	-132.9411
20.600000	78.645	-133.4682
20.900000	78.692	-134.1491
21.200001	78.739	-134.9071
21.400000	78.770	-135.4382
21.799999	78.837	-136.5355
22.000000	78.873	-137.0911
22.400000	78.957	-138.1934
22.700001	79.029	-138.9995
23.000000	79.106	-139.7811
23.299999	79.184	-140.5348
23.600000	79.257	-141.2575
24.000000	79.342	-142.1677
24.299999	79.394	-142.8100
24.700001	79.448	-143.6242
25.000000	79.481	-144.2209
25.400000	79.520	-145.0318
25.799999	79.556	-145.8886
26.200001	79.591	-146.7966
26.500000	79.617	-147.4985
26.900000	79.652	-148.4377
27.200001	79.680	-149.1328
27.600000	79.720	-150.0442
28.000000	79.761	-150.9466
28.500000	79.807	-152.0713
29.000000	79.844	-153.1773
29.500000	79.876	-154.2363
30.000000	79.910	-155.2465
30.400000	79.940	-156.0403
30.700001	79.964	-156.6387
31.100000	79.993	-157.4429
31.500000	80.016	-158.2433
32.000000	80.035	-159.2098
32.500000	80.050	-160.1246
33.000000	80.067	-161.0105
33.500000	80.090	-161.9091
34.000000	80.114	-162.8419
34.500000	80.132	-163.7935
35.000000	80.143	-164.7301
35.500000	80.148	-165.6307
36.000000	80.151	-166.5005
36.500000	80.152	-167.3583
37.000000	80.151	-168.2153
37.500000	80.147	-169.0689
38.200001	80.142	-170.2481
38.700001	80.140	-171.0800
39.500000	80.135	-172.3778
40.000000	80.127	-173.1402
40.599998	80.113	-173.9934
41.200001	80.096	-174.8188
41.799999	80.074	-175.6685
42.500000	80.036	-176.6906
43.099998	79.998	-177.5440
43.700001	79.963	-178.3486
44.400002	79.929	-179.2341
45.000000	79.901	-179.9562
45.500000	79.875	179.4659
46.200001	79.835	178.6789
46.799999	79.794	178.0076
47.500000	79.739	177.2224
48.200001	79.677	176.4339
48.700001	79.630	175.8646
49.400002	79.563	175.0695
50.000000	79.507	174.4185
50.799999	79.439	173.6261
51.500000	79.384	172.9861
52.200001	79.326	172.3651
53.000000	79.251	171.6526
53.799999	79.168	170.9227
54.500000	79.090	170.2915
55.200001	79.011	169.7143
56.000000	78.924	169.1417
57.000000	78.823	168.4869
58.000000	78.725	167.8206
59.000000	78.629	167.1730
60.000000	78.535	166.5941
60.799999	78.458	166.1930
61.500000	78.390	165.8887
62.200001	78.323	165.6099
63.000000	78.250	165.2944
64.000000	78.161	164.9032
65.000000	78.074	164.5409
66.000000	77.987	164.2065
67.000000	77.895	163.9106
68.000000	77.803	163.6573
69.000000	77.715	163.4019
70.000000	77.631	163.1145
71.000000	77.549	162.8358
72.000000	77.465	162.6154
73.000000	77.377	162.4313
74.000000	77.280	162.2454
75.000000	77.179	162.0839
76.199997	77.066	161.9551
77.500000	76.956	161.8365
78.800003	76.851	161.6938
80.000000	76.761	161.5885
81.199997	76.677	161.5132
82.500000	76.589	161.3861
83.800003	76.501	161.1990
85.000000	76.416	161.0895
86.199997	76.324	161.0961
87.500000	76.218	161.1517
88.500000	76.136	161.1790
90.000000	76.014	161.1927
91.199997	75.910	161.2054
92.500000	75.791	161.2373
93.800003	75.675	161.3080
95.000000	75.575	161.4177
96.199997	75.481	161.5635
97.500000	75.388	161.7491
98.800003	75.303	161.9767
100.000000	75.224	162.2249
101.500000	75.118	162.5164
103.000000	75.004	162.7257
104.400002	74.902	162.8803
106.000000	74.793	163.1051
107.500000	74.692	163.3901
109.000000	74.582	163.7153
110.599998	74.455	164.1027
112.000000	74.344	164.5080
113.800003	74.212	165.0339
115.000000	74.133	165.3184
117.199997	73.994	165.7347
118.000000	73.943	165.8868
120.599998	73.772	166.5288
122.000000	73.680	166.9734
124.099998	73.547	167.7263
125.000000	73.493	168.0728
126.500000	73.404	168.6704
128.000000	73.317	169.2856
131.500000	73.128	170.7724
132.000000	73.102	170.9892
134.000000	73.001	171.8472
136.000000	72.895	172.6802
138.000000	72.789	173.5186
140.000000	72.689	174.4178
143.000000	72.567	175.8618
145.000000	72.504	176.8317
147.500000	72.443	178.0991
150.000000	72.395	179.3897
152.500000	72.346	-179.4257
155.000000	72.293	-178.3456
157.500000	72.248	-177.2562
160.000000	72.205	-176.0531
162.500000	72.157	-174.7578
165.000000	72.113	-173.5355
167.500000	72.074	-172.4184
170.000000	72.041	-171.3068
172.500000	72.020	-170.2179
175.000000	72.013	-169.2200
177.500000	72.009	-168.3479
180.000000	72.001	-167.5736
182.500000	71.988	-166.7907
185.000000	71.974	-165.9272
187.500000	71.959	-165.0022
190.000000	71.942	-164.0587
192.500000	71.927	-163.1056
195.000000	71.914	-162.1647
197.500000	71.902	-161.2688
200.000000	71.895	-160.4169
203.000000	71.898	-159.4095
206.000000	71.913	-158.4017
209.000000	71.937	-157.3783
212.000000	71.962	-156.3190
214.000000	71.972	-155.5982
218.000000	71.973	-154.1700
220.000000	71.969	-153.4873
224.000000	71.970	-152.2101
227.000000	71.980	-151.2780
230.000000	71.990	-150.3247
233.000000	71.996	-149.3563
236.000000	72.000	-148.4031
240.000000	72.012	-147.1646
243.000000	72.025	-146.2413
247.000000	72.038	-144.9772
250.000000	72.047	-144.0119
254.000000	72.062	-142.7312
258.000000	72.078	-141.4461
262.000000	72.089	-140.2211
265.000000	72.096	-139.3629
269.000000	72.110	-138.2660
272.000000	72.125	-137.4726
276.000000	72.152	-136.4371
280.000000	72.175	-135.4085
285.000000	72.185	-134.1333
290.000000	72.170	-132.8269
295.000000	72.136	-131.3959
300.000000	72.096	-129.7871
304.000000	72.075	-128.3501
307.000000	72.071	-127.1835
311.000000	72.090	-125.5613
315.000000	72.136	-123.9688
320.000000	72.214	-122.1685
325.000000	72.294	-120.6061
330.000000	72.373	-119.2199
335.000000	72.441	-118.0200
340.000000	72.485	-116.9901
345.000000	72.507	-116.0206
350.000000	72.512	-115.0051
355.000000	72.500	-113.9334
360.000000	72.473	-112.8376
365.000000	72.437	-111.7450
370.000000	72.386	-110.6606
375.000000	72.320	-109.5276
382.000000	72.225	-107.7815
387.000000	72.167	-106.4679
395.000000	72.092	-104.3423
400.000000	72.055	-102.9552
406.000000	72.014	-101.2533
412.000000	71.966	-99.5960
418.000000	71.902	-97.9985
425.000000	71.814	-96.1721
431.000000	71.741	-94.5697
437.000000	71.672	-92.8954
444.000000	71.599	-90.8593
450.000000	71.539	-89.0104
455.000000	71.483	-87.3921
462.000000	71.392	-85.0932
468.000000	71.309	-83.1055
475.000000	71.220	-80.6823
482.000000	71.145	-78.1222
487.000000	71.099	-76.2558
494.000000	71.040	-73.6594
500.000000	70.991	-71.4662
508.000000	70.925	-68.5546
515.000000	70.871	-65.9795
522.000000	70.828	-63.3695
530.000000	70.792	-60.3397
538.000000	70.760	-57.2597
545.000000	70.729	-54.5733
552.000000	70.696	-51.9246
560.000000	70.656	-48.9519
570.000000	70.607	-45.2497
580.000000	70.559	-41.4518
590.000000	70.513	-37.5605
600.000000	70.468	-33.7126
608.000000	70.434	-30.6476
615.000000	70.405	-27.9157
622.000000	70.382	-25.1270
630.000000	70.368	-21.8983
640.000000	70.365	-17.7585
650.000000	70.372	-13.4699
660.000000	70.377	-9.2313
670.000000	70.370	-5.1667
680.000000	70.358	-1.1927
690.000000	70.342	2.7997
700.000000	70.311	6.8355
710.000000	70.270	10.8904
720.000000	70.236	14.9968
730.000000	70.221	19.1403
740.000000	70.218	23.2561
750.000000	70.222	27.3759
762.000000	70.244	32.4231
775.000000	70.285	38.0907
788.000000	70.311	43.8984
800.000000	70.317	49.3635
812.000000	70.325	54.9693
825.000000	70.348	61.2273
838.000000	70.381	67.6199
850.000000	70.413	73.5721
862.000000	70.444	79.5563
875.000000	70.485	86.0620
885.000000	70.525	91.0682
900.000000	70.586	98.5705
912.000000	70.626	104.5924
925.000000	70.666	111.1915
938.000000	70.713	117.8273
950.000000	70.769	123.9043
962.000000	70.832	129.8932
975.000000	70.907	136.3128
988.000000	70.985	142.7543
1000.000000	71.059	148.7749
1015.000000	71.161	156.3415
1030.000000	71.273	163.8177
1044.000000	71.376	170.6769
1060.000000	71.484	178.5223
1075.000000	71.591	-173.9723
1090.000000	71.714	-166.3478
1106.000000	71.850	-158.2141
1120.000000	71.962	-151.1780
1138.000000	72.097	-142.2446
1150.000000	72.184	-136.3389
1172.000000	72.344	-125.6086
1180.000000	72.404	-121.7302
1206.000000	72.607	-109.1983
1220.000000	72.718	-102.6361
1241.000000	72.863	-93.2816
1250.000000	72.916	-89.4582
1265.000000	73.000	-83.3141
1280.000000	73.093	-77.4279
1315.000000	73.335	-64.6871
1320.000000	73.367	-63.0168
1340.000000	73.481	-56.8201
1360.000000	73.566	-51.3983
1380.000000	73.636	-46.5704
1400.000000	73.715	-42.0736
1430.000000	73.855	-35.5794
1450.000000	73.952	-31.3441
1475.000000	74.070	-26.1406
1500.000000	74.184	-20.9657
1525.000000	74.298	-15.8005
1550.000000	74.423	-10.7510
1575.000000	74.564	-5.8845
1600.000000	74.720	-1.1302
1625.000000	74.874	3.6395
1650.000000	75.019	8.4761
1675.000000	75.161	13.3665
1700.000000	75.305	18.3256
1725.000000	75.454	23.3547
1750.000000	75.611	28.4346
1775.000000	75.775	33.5280
1800.000000	75.938	38.6449
1825.000000	76.101	43.7832
1850.000000	76.266	48.8529
1875.000000	76.431	53.7744
1900.000000	76.596	58.5270
1925.000000	76.759	63.0840
1950.000000	76.920	67.4344
1975.000000	77.082	71.6458
2000.000000	77.247	75.8436
2030.000000	77.448	80.9877
2060.000000	77.651	86.1595
2090.000000	77.849	91.2405
2120.000000	78.041	96.3112
2140.000000	78.168	99.7173
2180.000000	78.430	106.4656
2200.000000	78.564	109.7651
2240.000000	78.822	116.1236
2270.000000	79.004	120.5555
2300.000000	79.177	124.6497
2330.000000	79.346	128.4980
2360.000000	79.513	132.2070
2400.000000	79.741	136.9950
2430.000000	79.916	140.4423
2470.000000	80.142	144.6802
2500.000000	80.295	147.4662
2540.000000	80.473	150.6919
2580.000000	80.635	153.6844
2620.000000	80.793	156.6970
2650.000000	80.908	158.9812
2690.000000	81.050	161.9828
2720.000000	81.145	164.1281
2760.000000	81.253	166.8385
2800.000000	81.346	169.4843
2850.000000	81.448	172.7277
2900.000000	81.534	175.7401
2950.000000	81.598	178.5458
3000.000000	81.631	-178.7557
3040.000000	81.641	-176.6518
3070.000000	81.642	-175.0758
3110.000000	81.635	-172.9395
3150.000000	81.616	-170.7762
3200.000000	81.572	-168.1291
3250.000000	81.510	-165.5508
3300.000000	81.453	-162.8841
3350.000000	81.406	-159.9717
3400.000000	81.359	-156.9021
3450.000000	81.305	-153.9770
3500.000000	81.238	-151.4953
3550.000000	81.155	-149.4481
3600.000000	81.068	-147.5560
3650.000000	80.984	-145.5844
3700.000000	80.905	-143.4012
3750.000000	80.839	-140.9549
3820.000000	80.765	-137.3059
3870.000000	80.714	-134.7462
3950.000000	80.642	-130.8154
4000.000000	80.615	-128.4440
4060.000000	80.606	-125.7618
4120.000000	80.615	-123.4101
4180.000000	80.634	-121.6023
4250.000000	80.663	-120.3351
4310.000000	80.706	-119.8151
4370.000000	80.780	-119.6160
4440.000000	80.898	-119.7877
4500.000000	81.020	-120.3900
4550.000000	81.135	-121.3194
4620.000000	81.313	-123.5108
4680.000000	81.477	-126.3631
4750.000000	81.684	-130.8166
4820.000000	81.900	-136.3632
4870.000000	82.052	-140.9214
4940.000000	82.250	-147.9951
5000.000000	82.398	-154.4076
5080.000000	82.552	-162.7722
5150.000000	82.621	-169.5996
5220.000000	82.587	-176.1505
5300.000000	82.402	176.4055
5380.000000	82.062	168.9760
5450.000000	81.647	162.6429
5520.000000	81.145	156.7118
5600.000000	80.496	150.6515
5700.000000	79.631	144.2375
5800.000000	78.771	138.9106
5900.000000	77.952	134.4431
6000.000000	77.200	130.7710
6080.000000	76.653	128.3400
6150.000000	76.217	126.5874
6220.000000	75.820	125.2535
6300.000000	75.413	124.2559
6400.000000	74.965	123.4629
6500.000000	74.578	122.5432
6600.000000	74.252	120.9309
6700.000000	73.993	118.3511
6800.000000	73.813	114.5804
6900.000000	73.706	109.2756
7000.000000	73.670	102.4524
7100.000000	73.713	94.3846
7200.000000	73.844	85.2251
7300.000000	74.074	75.1563
7400.000000	74.414	64.4292
7500.000000	74.872	53.2317
7620.000000	75.573	39.2422
7750.000000	76.498	23.6171
7880.000000	77.508	7.4797
8000.000000	78.368	-8.7849
8120.000000	78.984	-27.2943
8250.000000	79.197	-49.8676
8380.000000	78.846	-73.4515
8500.000000	78.060	-94.1125
8620.000000	76.945	-112.6163
8750.000000	75.521	-130.1117
8850.000000	74.370	-142.1231
9000.000000	72.685	-158.6432
9120.000000	71.444	-171.0731
9250.000000	70.238	175.8665
9380.000000	69.176	162.7569
9500.000000	68.313	150.2506
9620.000000	67.551	137.2880
9750.000000	66.826	122.8145
9880.000000	66.182	107.6507
10000.000000	65.632	92.4714
10150.000000	64.980	71.7594
10300.000000	64.361	50.1674
10440.000000	63.813	30.1667
10600.000000	63.211	7.5916
10750.000000	62.675	-13.7216
10900.000000	62.181	-35.4200
11060.000000	61.717	-58.8254
11200.000000	61.366	-79.5397
11380.000000	60.983	-107.1268
11500.000000	60.771	-126.5541
11720.000000	60.474	-164.5001
11800.000000	60.395	-178.8859
12060.000000	60.251	134.1336
12200.000000	60.253	109.8709
12410.000000	60.385	74.9059
12500.000000	60.495	59.8307
12650.000000	60.757	33.7475
12800.000000	61.126	6.0867
13150.000000	62.484	-63.3463
13200.000000	62.739	-73.6519
13400.000000	63.900	-116.1700
13600.000000	65.206	-161.2147
13800.000000	66.496	151.6945
14000.000000	67.550	103.3856
14300.000000	68.204	29.3986
14500.000000	67.853	-22.5168
14750.000000	66.627	-93.6293
15000.000000	64.915	-161.5264
15250.000000	63.168	135.5846
15500.000000	61.721	69.0353
15750.000000	60.712	-1.1863
16000.000000	60.051	-70.4274
16250.000000	59.504	-136.7180
16500.000000	58.809	158.7401
16750.000000	57.777	96.7889
17000.000000	56.320	36.2563
17250.000000	54.455	-28.5903
17500.000000	52.276	-96.3729
17750.000000	49.885	-162.6656
18000.000000	47.382	131.5349
18250.000000	44.863	69.2289
18500.000000	42.463	13.8676
18750.000000	40.358	-40.6534
19000.000000	38.781	-97.9756
19250.000000	37.913	-160.1052
19500.000000	37.703	134.2466
19750.000000	37.841	91.5889
20000.000000	37.980	72.4131
