* Measurement data measured by REW V5.31.1
* Source: Frequency response averaged data
* Format: Averaged data produced from the rms magnitudes of Vivo TWS 4, Vivo TWS 4, Vivo TWS 4, Vivo TWS 4
* Dated: 31-May-2024 09:56:39
* REW Settings:
*  C-weighting compensation: Off
*  Target level: 75.0 dB
* Note: 
* Measurement: RMS Average 1
* Smoothing: 1/12 octave
* Frequency Step: 1/48 octave
* Start Frequency: 20.300 Hz
*
* Freq(Hz)	SPL(dB)
20.299999	79.987
20.600000	80.051
20.900000	80.155
21.200001	80.122
21.400000	79.991
21.799999	79.501
22.000000	79.199
22.400000	78.697
22.700001	78.630
23.000000	78.918
23.299999	79.415
23.600000	79.960
24.000000	80.570
24.299999	80.877
24.700001	81.083
25.000000	81.106
25.400000	80.999
25.799999	80.795
26.200001	80.567
26.500000	80.406
26.900000	80.208
27.200001	80.052
27.600000	79.805
28.000000	79.494
28.500000	79.042
29.000000	78.686
29.500000	78.682
30.000000	79.065
30.400000	79.467
30.700001	79.739
31.100000	80.030
31.500000	80.249
32.000000	80.409
32.500000	80.367
33.000000	80.082
33.500000	79.671
34.000000	79.385
34.500000	79.361
35.000000	79.482
35.500000	79.561
36.000000	79.553
36.500000	79.524
37.000000	79.533
37.500000	79.571
38.200001	79.623
38.700001	79.640
39.500000	79.582
40.000000	79.463
40.599998	79.260
41.200001	79.050
41.799999	78.853
42.500000	78.614
43.099998	78.402
43.700001	78.225
44.400002	78.071
45.000000	77.926
45.500000	77.747
46.200001	77.382
46.799999	77.015
47.500000	76.683
48.200001	76.582
48.700001	76.632
49.400002	76.752
50.000000	76.795
50.799999	76.654
51.500000	76.338
52.200001	75.972
53.000000	75.756
53.799999	75.839
54.500000	75.965
55.200001	75.990
56.000000	75.918
57.000000	75.907
58.000000	76.059
59.000000	76.091
60.000000	75.753
60.799999	75.282
61.500000	74.861
62.200001	74.528
63.000000	74.307
64.000000	74.244
65.000000	74.272
66.000000	74.228
67.000000	74.050
68.000000	73.812
69.000000	73.643
70.000000	73.553
71.000000	73.456
72.000000	73.319
73.000000	73.189
74.000000	73.073
75.000000	72.949
76.199997	72.830
77.500000	72.806
78.800003	72.817
80.000000	72.808
81.199997	72.813
82.500000	72.857
83.800003	72.907
85.000000	72.940
86.199997	72.982
87.500000	73.069
88.500000	73.158
90.000000	73.277
91.199997	73.314
92.500000	73.278
93.800003	73.195
95.000000	73.119
96.199997	73.065
97.500000	73.023
98.800003	72.976
100.000000	72.919
101.500000	72.843
103.000000	72.779
104.400002	72.731
106.000000	72.667
107.500000	72.578
109.000000	72.487
110.599998	72.414
112.000000	72.350
113.800003	72.250
115.000000	72.182
117.199997	72.064
118.000000	72.022
120.599998	71.892
122.000000	71.838
124.099998	71.776
125.000000	71.751
126.500000	71.706
128.000000	71.648
131.500000	71.484
132.000000	71.460
134.000000	71.368
136.000000	71.268
138.000000	71.149
140.000000	71.019
143.000000	70.823
145.000000	70.695
147.500000	70.549
150.000000	70.401
152.500000	70.229
155.000000	70.062
157.500000	69.927
160.000000	69.802
162.500000	69.671
165.000000	69.547
167.500000	69.424
170.000000	69.286
172.500000	69.140
175.000000	69.012
177.500000	68.905
180.000000	68.809
182.500000	68.725
185.000000	68.655
187.500000	68.580
190.000000	68.485
192.500000	68.371
195.000000	68.245
197.500000	68.124
200.000000	68.021
203.000000	67.920
206.000000	67.837
209.000000	67.775
212.000000	67.735
214.000000	67.716
218.000000	67.687
220.000000	67.675
224.000000	67.651
227.000000	67.632
230.000000	67.616
233.000000	67.606
236.000000	67.587
240.000000	67.532
243.000000	67.480
247.000000	67.421
250.000000	67.382
254.000000	67.333
258.000000	67.297
262.000000	67.275
265.000000	67.261
269.000000	67.231
272.000000	67.200
276.000000	67.154
280.000000	67.108
285.000000	67.064
290.000000	67.040
295.000000	67.013
300.000000	66.975
304.000000	66.948
307.000000	66.939
311.000000	66.953
315.000000	66.992
320.000000	67.052
325.000000	67.118
330.000000	67.194
335.000000	67.279
340.000000	67.371
345.000000	67.467
350.000000	67.571
355.000000	67.686
360.000000	67.806
365.000000	67.923
370.000000	68.033
375.000000	68.146
382.000000	68.337
387.000000	68.502
395.000000	68.784
400.000000	68.950
406.000000	69.134
412.000000	69.310
418.000000	69.487
425.000000	69.696
431.000000	69.867
437.000000	70.024
444.000000	70.196
450.000000	70.332
455.000000	70.431
462.000000	70.546
468.000000	70.624
475.000000	70.694
482.000000	70.747
487.000000	70.777
494.000000	70.808
500.000000	70.818
508.000000	70.811
515.000000	70.788
522.000000	70.755
530.000000	70.703
538.000000	70.632
545.000000	70.549
552.000000	70.448
560.000000	70.312
570.000000	70.118
580.000000	69.899
590.000000	69.665
600.000000	69.424
608.000000	69.226
615.000000	69.044
622.000000	68.854
630.000000	68.630
640.000000	68.345
650.000000	68.060
660.000000	67.783
670.000000	67.517
680.000000	67.268
690.000000	67.043
700.000000	66.848
710.000000	66.691
720.000000	66.573
730.000000	66.494
740.000000	66.461
750.000000	66.481
762.000000	66.577
775.000000	66.755
788.000000	67.005
800.000000	67.293
812.000000	67.629
825.000000	68.039
838.000000	68.485
850.000000	68.907
862.000000	69.318
875.000000	69.736
885.000000	70.036
900.000000	70.458
912.000000	70.776
925.000000	71.107
938.000000	71.422
950.000000	71.696
962.000000	71.951
975.000000	72.203
988.000000	72.426
1000.000000	72.605
1015.000000	72.798
1030.000000	72.959
1044.000000	73.085
1060.000000	73.207
1075.000000	73.310
1090.000000	73.406
1106.000000	73.497
1120.000000	73.565
1138.000000	73.630
1150.000000	73.658
1172.000000	73.680
1180.000000	73.683
1206.000000	73.702
1220.000000	73.732
1241.000000	73.817
1250.000000	73.873
1265.000000	74.003
1280.000000	74.186
1315.000000	74.848
1320.000000	74.968
1340.000000	75.498
1360.000000	76.075
1380.000000	76.644
1400.000000	77.159
1430.000000	77.811
1450.000000	78.189
1475.000000	78.625
1500.000000	79.026
1525.000000	79.384
1550.000000	79.679
1575.000000	79.885
1600.000000	79.981
1625.000000	79.976
1650.000000	79.918
1675.000000	79.896
1700.000000	79.986
1725.000000	80.186
1750.000000	80.425
1775.000000	80.631
1800.000000	80.775
1825.000000	80.869
1850.000000	80.950
1875.000000	81.068
1900.000000	81.254
1925.000000	81.496
1950.000000	81.752
1975.000000	81.979
2000.000000	82.154
2030.000000	82.288
2060.000000	82.349
2090.000000	82.365
2120.000000	82.361
2140.000000	82.356
2180.000000	82.341
2200.000000	82.330
2240.000000	82.297
2270.000000	82.270
2300.000000	82.241
2330.000000	82.212
2360.000000	82.188
2400.000000	82.170
2430.000000	82.169
2470.000000	82.176
2500.000000	82.185
2540.000000	82.199
2580.000000	82.213
2620.000000	82.224
2650.000000	82.230
2690.000000	82.242
2720.000000	82.263
2760.000000	82.311
2800.000000	82.386
2850.000000	82.513
2900.000000	82.676
2950.000000	82.875
3000.000000	83.096
3040.000000	83.260
3070.000000	83.364
3110.000000	83.474
3150.000000	83.568
3200.000000	83.703
3250.000000	83.876
3300.000000	84.076
3350.000000	84.288
3400.000000	84.489
3450.000000	84.646
3500.000000	84.734
3550.000000	84.758
3600.000000	84.751
3650.000000	84.753
3700.000000	84.773
3750.000000	84.794
3820.000000	84.796
3870.000000	84.750
3950.000000	84.500
4000.000000	84.208
4060.000000	83.777
4120.000000	83.340
4180.000000	82.935
4250.000000	82.496
4310.000000	82.125
4370.000000	81.741
4440.000000	81.274
4500.000000	80.866
4550.000000	80.529
4620.000000	80.073
4680.000000	79.698
4750.000000	79.280
4820.000000	78.889
4870.000000	78.632
4940.000000	78.306
5000.000000	78.052
5080.000000	77.733
5150.000000	77.445
5220.000000	77.115
5300.000000	76.658
5380.000000	76.141
5450.000000	75.696
5520.000000	75.289
5600.000000	74.846
5700.000000	74.319
5800.000000	73.961
5900.000000	73.898
6000.000000	74.123
6080.000000	74.490
6150.000000	74.914
6220.000000	75.370
6300.000000	75.839
6400.000000	76.240
6500.000000	76.386
6600.000000	76.277
6700.000000	75.942
6800.000000	75.437
6900.000000	74.842
7000.000000	74.217
7100.000000	73.588
7200.000000	72.972
7300.000000	72.394
7400.000000	71.887
7500.000000	71.489
7620.000000	71.205
7750.000000	71.187
7880.000000	71.522
8000.000000	72.214
8120.000000	73.265
8250.000000	74.609
8380.000000	75.889
8500.000000	76.867
8620.000000	77.608
8750.000000	78.149
8850.000000	78.417
9000.000000	78.661
9120.000000	78.740
9250.000000	78.646
9380.000000	78.262
9500.000000	77.594
9620.000000	76.646
9750.000000	75.401
9880.000000	74.065
10000.000000	72.857
10150.000000	71.478
10300.000000	70.292
10440.000000	69.334
10600.000000	68.329
10750.000000	67.432
10900.000000	66.647
11060.000000	66.129
11200.000000	66.122
11380.000000	66.766
11500.000000	67.445
11720.000000	68.665
11800.000000	68.993
12060.000000	69.389
12200.000000	69.186
12410.000000	68.535
12500.000000	68.226
12650.000000	67.821
12800.000000	67.667
13150.000000	68.196
13200.000000	68.302
13400.000000	68.501
13600.000000	68.058
13800.000000	66.958
14000.000000	65.744
14300.000000	65.124
14500.000000	65.400
14750.000000	65.732
15000.000000	65.782
15250.000000	65.736
15500.000000	65.845
15750.000000	66.046
16000.000000	66.156
16250.000000	66.107
16500.000000	65.850
16750.000000	65.327
17000.000000	64.652
17250.000000	64.152
17500.000000	63.997
17750.000000	63.960
18000.000000	63.692
18250.000000	62.964
18500.000000	61.718
18750.000000	60.122
19000.000000	58.620
19250.000000	57.730
19500.000000	57.522
19750.000000	57.636
