* Measurement data measured by REW V5.31.3
* Source: Microphone (4- USB Audio Device), MICROPHONE (Master Volume), R, volume: 0.250
* Format: 256k Log Swept Sine, 1 sweep at -12.0 dBFS with no timing reference
* Dated: 18-Oct-2024 21:03:11
* REW Settings:
*  C-weighting compensation: Off
*  Target level: 75.0 dB
* Note: 
* Measurement: Earfun Air Pro 4 R
* Smoothing: 1/12 octave
* Frequency Step: 1/48 octave
* Start Frequency: 20.300 Hz
*
* Freq(Hz)	SPL(dB)	Phase(degrees)
20.299999	81.526	81.5679
20.600000	81.610	81.0814
20.900000	81.714	80.5039
21.200001	81.825	79.8943
21.400000	81.899	79.4621
21.799999	82.035	78.4820
22.000000	82.095	77.9156
22.400000	82.193	76.6164
22.700001	82.247	75.5101
23.000000	82.289	74.3139
23.299999	82.325	73.0487
23.600000	82.362	71.7299
24.000000	82.423	69.9083
24.299999	82.481	68.5119
24.700001	82.572	66.6481
25.000000	82.650	65.2819
25.400000	82.758	63.5503
25.799999	82.864	61.9535
26.200001	82.964	60.4940
26.500000	83.032	59.4727
26.900000	83.112	58.1719
27.200001	83.166	57.2145
27.600000	83.232	55.9248
28.000000	83.294	54.5916
28.500000	83.368	52.8553
29.000000	83.438	51.0889
29.500000	83.503	49.3805
30.000000	83.565	47.7956
30.400000	83.614	46.6164
30.700001	83.649	45.7651
31.100000	83.694	44.6447
31.500000	83.735	43.5164
32.000000	83.780	42.0849
32.500000	83.819	40.6512
33.000000	83.857	39.2485
33.500000	83.894	37.8970
34.000000	83.930	36.5963
34.500000	83.959	35.3323
35.000000	83.979	34.0861
35.500000	83.992	32.8424
36.000000	84.001	31.5952
36.500000	84.012	30.3516
37.000000	84.028	29.1300
37.500000	84.047	27.9502
38.200001	84.073	26.3794
38.700001	84.087	25.2932
39.500000	84.093	23.5457
40.000000	84.087	22.4333
40.599998	84.072	21.1129
41.200001	84.061	19.8664
41.799999	84.060	18.7259
42.500000	84.072	17.4967
43.099998	84.082	16.4703
43.700001	84.080	15.4288
44.400002	84.060	14.1848
45.000000	84.031	13.1088
45.500000	84.005	12.2183
46.200001	83.971	10.9911
46.799999	83.947	9.9612
47.500000	83.922	8.8067
48.200001	83.898	7.7348
48.700001	83.885	7.0128
49.400002	83.872	6.0117
50.000000	83.854	5.1288
50.799999	83.810	3.9411
51.500000	83.758	2.9362
52.200001	83.701	1.9623
53.000000	83.634	0.8730
53.799999	83.565	-0.1541
54.500000	83.515	-0.9786
55.200001	83.479	-1.7721
56.000000	83.447	-2.7059
57.000000	83.393	-3.9001
58.000000	83.321	-5.0349
59.000000	83.248	-6.1251
60.000000	83.181	-7.2031
60.799999	83.127	-8.0281
61.500000	83.078	-8.7043
62.200001	83.030	-9.3426
63.000000	82.975	-10.0463
64.000000	82.904	-10.9122
65.000000	82.832	-11.7650
66.000000	82.764	-12.6109
67.000000	82.700	-13.4472
68.000000	82.631	-14.2524
69.000000	82.552	-15.0197
70.000000	82.464	-15.7573
71.000000	82.375	-16.4657
72.000000	82.292	-17.1286
73.000000	82.217	-17.7449
74.000000	82.146	-18.3421
75.000000	82.071	-18.9468
76.199997	81.974	-19.6706
77.500000	81.866	-20.4059
78.800003	81.763	-21.1161
80.000000	81.671	-21.7794
81.199997	81.578	-22.4145
82.500000	81.474	-23.0216
83.800003	81.367	-23.5668
85.000000	81.271	-24.0239
86.199997	81.179	-24.4327
87.500000	81.079	-24.8757
88.500000	81.001	-25.2406
90.000000	80.891	-25.7788
91.199997	80.808	-26.1646
92.500000	80.723	-26.5437
93.800003	80.637	-26.8973
95.000000	80.555	-27.2193
96.199997	80.470	-27.5502
97.500000	80.371	-27.8731
98.800003	80.267	-28.1260
100.000000	80.173	-28.3457
101.500000	80.065	-28.6648
103.000000	79.967	-29.0366
104.400002	79.879	-29.4155
106.000000	79.779	-29.8598
107.500000	79.683	-30.2548
109.000000	79.583	-30.5958
110.599998	79.477	-30.8546
112.000000	79.384	-30.9521
113.800003	79.261	-31.0092
115.000000	79.180	-31.0650
117.199997	79.034	-31.1886
118.000000	78.983	-31.2286
120.599998	78.823	-31.3341
122.000000	78.743	-31.3654
124.099998	78.628	-31.3373
125.000000	78.579	-31.2862
126.500000	78.499	-31.1484
128.000000	78.425	-30.9738
131.500000	78.262	-30.6174
132.000000	78.237	-30.5883
134.000000	78.135	-30.5111
136.000000	78.034	-30.4107
138.000000	77.945	-30.2056
140.000000	77.864	-29.9202
143.000000	77.746	-29.4825
145.000000	77.665	-29.1822
147.500000	77.563	-28.7955
150.000000	77.469	-28.3888
152.500000	77.380	-27.9564
155.000000	77.292	-27.5419
157.500000	77.202	-27.1437
160.000000	77.113	-26.7271
162.500000	77.032	-26.3147
165.000000	76.958	-25.8622
167.500000	76.889	-25.3472
170.000000	76.825	-24.8337
172.500000	76.766	-24.3317
175.000000	76.714	-23.8370
177.500000	76.661	-23.3534
180.000000	76.597	-22.8689
182.500000	76.523	-22.3814
185.000000	76.441	-21.8897
187.500000	76.358	-21.3852
190.000000	76.277	-20.8854
192.500000	76.201	-20.3888
195.000000	76.133	-19.8776
197.500000	76.077	-19.3456
200.000000	76.039	-18.8032
203.000000	76.017	-18.1451
206.000000	76.015	-17.4916
209.000000	76.020	-16.8651
212.000000	76.020	-16.2525
214.000000	76.014	-15.8476
218.000000	75.991	-15.0387
220.000000	75.977	-14.6275
224.000000	75.948	-13.7887
227.000000	75.925	-13.1658
230.000000	75.901	-12.5512
233.000000	75.872	-11.9393
236.000000	75.841	-11.3217
240.000000	75.800	-10.5123
243.000000	75.769	-9.9144
247.000000	75.721	-9.0515
250.000000	75.691	-8.4018
254.000000	75.664	-7.5929
258.000000	75.640	-6.7262
262.000000	75.618	-5.7510
265.000000	75.605	-4.9983
269.000000	75.597	-3.9793
272.000000	75.602	-3.2270
276.000000	75.617	-2.3042
280.000000	75.637	-1.5005
285.000000	75.667	-0.6716
290.000000	75.690	0.0644
295.000000	75.703	0.8157
300.000000	75.706	1.6043
304.000000	75.702	2.2602
307.000000	75.696	2.7498
311.000000	75.688	3.3922
315.000000	75.679	4.0512
320.000000	75.669	4.9040
325.000000	75.662	5.7513
330.000000	75.662	6.5836
335.000000	75.663	7.4527
340.000000	75.663	8.3969
345.000000	75.661	9.3794
350.000000	75.657	10.3491
355.000000	75.652	11.3126
360.000000	75.646	12.2688
365.000000	75.641	13.2000
370.000000	75.635	14.1148
375.000000	75.626	15.0197
382.000000	75.609	16.2791
387.000000	75.597	17.2103
395.000000	75.587	18.7147
400.000000	75.582	19.6247
406.000000	75.575	20.7475
412.000000	75.571	21.9357
418.000000	75.575	23.1280
425.000000	75.582	24.4827
431.000000	75.583	25.6737
437.000000	75.575	26.9284
444.000000	75.558	28.4279
450.000000	75.544	29.7197
455.000000	75.537	30.7972
462.000000	75.533	32.2668
468.000000	75.531	33.4601
475.000000	75.530	34.7932
482.000000	75.529	36.1261
487.000000	75.527	37.1039
494.000000	75.520	38.5029
500.000000	75.515	39.6935
508.000000	75.515	41.2310
515.000000	75.518	42.5762
522.000000	75.518	43.9559
530.000000	75.512	45.5959
538.000000	75.501	47.3025
545.000000	75.493	48.8214
552.000000	75.489	50.3674
560.000000	75.487	52.1949
570.000000	75.488	54.5505
580.000000	75.492	56.9116
590.000000	75.495	59.2399
600.000000	75.494	61.5415
608.000000	75.493	63.3597
615.000000	75.495	64.9474
622.000000	75.500	66.5356
630.000000	75.508	68.3384
640.000000	75.515	70.5282
650.000000	75.517	72.6207
660.000000	75.520	74.6717
670.000000	75.530	76.7572
680.000000	75.543	78.9021
690.000000	75.559	81.0813
700.000000	75.580	83.2644
710.000000	75.603	85.4506
720.000000	75.618	87.6313
730.000000	75.621	89.8313
740.000000	75.618	92.0668
750.000000	75.621	94.3349
762.000000	75.634	97.1742
775.000000	75.654	100.4812
788.000000	75.667	104.0009
800.000000	75.683	107.3777
812.000000	75.712	110.8403
825.000000	75.753	114.6543
838.000000	75.797	118.4741
850.000000	75.841	121.9760
862.000000	75.892	125.4318
875.000000	75.954	129.1255
885.000000	76.008	131.9501
900.000000	76.097	136.1619
912.000000	76.172	139.5011
925.000000	76.254	143.1360
938.000000	76.340	146.8225
950.000000	76.419	150.2609
962.000000	76.496	153.7150
975.000000	76.582	157.4529
988.000000	76.679	161.1485
1000.000000	76.778	164.5090
1015.000000	76.907	168.6468
1030.000000	77.042	172.6383
1044.000000	77.174	176.0870
1060.000000	77.319	179.5902
1075.000000	77.442	-177.5726
1090.000000	77.558	-175.1180
1106.000000	77.686	-172.7740
1120.000000	77.803	-170.8468
1138.000000	77.952	-168.4335
1150.000000	78.050	-166.8374
1172.000000	78.235	-163.9375
1180.000000	78.307	-162.8853
1206.000000	78.547	-159.4690
1220.000000	78.678	-157.6835
1241.000000	78.878	-155.1553
1250.000000	78.966	-154.1255
1265.000000	79.118	-152.4615
1280.000000	79.274	-150.8401
1315.000000	79.614	-147.0830
1320.000000	79.656	-146.5334
1340.000000	79.795	-144.2714
1360.000000	79.885	-141.8889
1380.000000	79.942	-139.3874
1400.000000	79.993	-136.7944
1430.000000	80.102	-132.8763
1450.000000	80.196	-130.3673
1475.000000	80.335	-127.3752
1500.000000	80.496	-124.4305
1525.000000	80.670	-121.4283
1550.000000	80.861	-118.4194
1575.000000	81.055	-115.4702
1600.000000	81.243	-112.5889
1625.000000	81.431	-109.7461
1650.000000	81.624	-106.8766
1675.000000	81.826	-103.9579
1700.000000	82.033	-101.0692
1725.000000	82.233	-98.3270
1750.000000	82.422	-95.7761
1775.000000	82.607	-93.3804
1800.000000	82.788	-91.0695
1825.000000	82.967	-88.8046
1850.000000	83.147	-86.5568
1875.000000	83.332	-84.3000
1900.000000	83.522	-82.0779
1925.000000	83.713	-80.0211
1950.000000	83.895	-78.2750
1975.000000	84.064	-76.8972
2000.000000	84.222	-75.8060
2030.000000	84.405	-74.6613
2060.000000	84.590	-73.4588
2090.000000	84.781	-72.0701
2120.000000	84.971	-70.5607
2140.000000	85.093	-69.5578
2180.000000	85.322	-67.6685
2200.000000	85.429	-66.7815
2240.000000	85.631	-65.0469
2270.000000	85.774	-63.7474
2300.000000	85.911	-62.4685
2330.000000	86.040	-61.2868
2360.000000	86.159	-60.2913
2400.000000	86.300	-59.3744
2430.000000	86.391	-59.0262
2470.000000	86.495	-58.9282
2500.000000	86.561	-58.9578
2540.000000	86.643	-58.8476
2580.000000	86.718	-58.4630
2620.000000	86.781	-57.9258
2650.000000	86.819	-57.5386
2690.000000	86.857	-57.1644
2720.000000	86.874	-57.0054
2760.000000	86.885	-56.9202
2800.000000	86.885	-56.9601
2850.000000	86.866	-57.1436
2900.000000	86.827	-57.1777
2950.000000	86.784	-56.5657
3000.000000	86.741	-55.0695
3040.000000	86.699	-53.5105
3070.000000	86.656	-52.3857
3110.000000	86.582	-51.1624
3150.000000	86.495	-50.3234
3200.000000	86.376	-49.6466
3250.000000	86.249	-49.0833
3300.000000	86.116	-48.4397
3350.000000	85.977	-47.7301
3400.000000	85.824	-47.1289
3450.000000	85.649	-46.7306
3500.000000	85.456	-46.4208
3550.000000	85.259	-46.0464
3600.000000	85.062	-45.6230
3650.000000	84.864	-45.2350
3700.000000	84.671	-44.8454
3750.000000	84.493	-44.3825
3820.000000	84.267	-43.7106
3870.000000	84.114	-43.2760
3950.000000	83.875	-42.4971
4000.000000	83.713	-41.8966
4060.000000	83.498	-41.0806
4120.000000	83.261	-40.2121
4180.000000	83.000	-39.3497
4250.000000	82.665	-38.3672
4310.000000	82.359	-37.4748
4370.000000	82.041	-36.5389
4440.000000	81.662	-35.4641
4500.000000	81.342	-34.4733
4550.000000	81.085	-33.4806
4620.000000	80.738	-31.7631
4680.000000	80.443	-30.0610
4750.000000	80.090	-27.9332
4820.000000	79.724	-25.7637
4870.000000	79.456	-24.2872
4940.000000	79.067	-22.5222
5000.000000	78.721	-21.4414
5080.000000	78.246	-20.6576
5150.000000	77.823	-20.3925
5220.000000	77.405	-20.1680
5300.000000	76.943	-19.5486
5380.000000	76.498	-18.3400
5450.000000	76.123	-16.8103
5520.000000	75.771	-14.9819
5600.000000	75.395	-12.8375
5700.000000	74.961	-10.3198
5800.000000	74.573	-7.8929
5900.000000	74.238	-5.8619
6000.000000	73.945	-4.7128
6080.000000	73.733	-4.3386
6150.000000	73.561	-4.1230
6220.000000	73.400	-3.7803
6300.000000	73.227	-3.0515
6400.000000	73.034	-1.3834
6500.000000	72.878	1.2253
6600.000000	72.757	4.4462
6700.000000	72.669	8.0016
6800.000000	72.617	11.7162
6900.000000	72.601	15.4269
7000.000000	72.623	19.1536
7100.000000	72.694	22.9435
7200.000000	72.814	26.6586
7300.000000	72.985	30.2208
7400.000000	73.217	33.5706
7500.000000	73.513	36.5042
7620.000000	73.946	39.4614
7750.000000	74.491	42.5619
7880.000000	75.085	46.0703
8000.000000	75.670	49.4127
8120.000000	76.326	52.3623
8250.000000	77.195	54.6542
8380.000000	78.301	55.4084
8500.000000	79.547	54.1273
8620.000000	80.952	50.5026
8750.000000	82.513	43.8051
8850.000000	83.609	36.6633
9000.000000	84.826	22.7080
9120.000000	85.265	9.3428
9250.000000	85.124	-5.9757
9380.000000	84.401	-20.7560
9500.000000	83.356	-32.9485
9620.000000	82.110	-43.1500
9750.000000	80.686	-51.8985
9880.000000	79.294	-58.6724
10000.000000	78.091	-63.4444
10150.000000	76.735	-67.4840
10300.000000	75.553	-69.6712
10440.000000	74.588	-70.6917
10600.000000	73.615	-71.2995
10750.000000	72.808	-71.6238
10900.000000	72.090	-71.8199
11060.000000	71.415	-71.6964
11200.000000	70.892	-71.0579
11380.000000	70.304	-69.1687
11500.000000	69.963	-66.9949
11720.000000	69.446	-60.7056
11800.000000	69.293	-57.7542
12060.000000	68.920	-47.0232
12200.000000	68.795	-40.9660
12410.000000	68.711	-31.3712
12500.000000	68.714	-26.9845
12650.000000	68.769	-19.2740
12800.000000	68.880	-11.1195
13150.000000	69.308	8.7656
13200.000000	69.391	11.5900
13400.000000	69.822	22.3910
13600.000000	70.512	31.6657
13800.000000	71.553	38.7059
14000.000000	72.928	42.9600
14300.000000	75.240	42.8879
14500.000000	76.520	38.1669
14750.000000	77.284	28.8646
15000.000000	76.828	19.8822
15250.000000	75.293	15.3623
15500.000000	73.123	17.5007
15750.000000	70.774	24.6082
16000.000000	68.559	33.7032
16250.000000	66.657	44.5077
16500.000000	65.282	57.5912
16750.000000	64.512	71.5729
17000.000000	64.188	85.0219
17250.000000	64.131	97.0899
17500.000000	64.225	106.1108
17750.000000	64.381	110.1946
18000.000000	64.514	109.2232
18250.000000	64.523	104.3171
18500.000000	64.315	97.0763
18750.000000	63.852	89.1481
19000.000000	63.160	81.6004
19250.000000	62.300	74.8747
19500.000000	61.339	69.2782
19750.000000	60.404	65.2539
20000.000000	59.798	63.1923
