* Measurement data measured by REW V5.31.3
* Source: Microphone (4- USB Audio Device), MICROPHONE (Master Volume), R, volume: 0.250
* Format: 256k Log Swept Sine, 1 sweep at -12.0 dBFS with no timing reference
* Dated: 01-Aug-2024 14:08:30
* REW Settings:
*  C-weighting compensation: Off
*  Target level: 75.0 dB
* Note: 
* Measurement: Earfun Air Pro 4 L
* Smoothing: 1/12 octave
* Frequency Step: 1/48 octave
* Start Frequency: 20.300 Hz
*
* Freq(Hz)	SPL(dB)	Phase(degrees)
20.299999	103.759	94.5387
20.600000	103.807	93.4335
20.900000	103.874	92.0202
21.200001	103.955	90.4874
21.400000	104.017	89.4472
21.799999	104.159	87.3951
22.000000	104.237	86.4058
22.400000	104.402	84.5371
22.700001	104.526	83.2459
23.000000	104.643	82.0487
23.299999	104.750	80.9350
23.600000	104.844	79.8875
24.000000	104.949	78.5568
24.299999	105.016	77.5804
24.700001	105.095	76.2709
25.000000	105.152	75.2667
25.400000	105.228	73.8910
25.799999	105.308	72.4875
26.200001	105.389	71.0883
26.500000	105.450	70.0628
26.900000	105.529	68.7458
27.200001	105.585	67.7978
27.600000	105.655	66.5763
28.000000	105.718	65.3855
28.500000	105.788	63.9191
29.000000	105.849	62.4755
29.500000	105.908	61.0654
30.000000	105.966	59.6922
30.400000	106.012	58.6151
30.700001	106.045	57.8180
31.100000	106.084	56.7715
31.500000	106.118	55.7488
32.000000	106.154	54.5088
32.500000	106.188	53.3051
33.000000	106.223	52.1225
33.500000	106.255	50.9555
34.000000	106.283	49.8148
34.500000	106.306	48.7155
35.000000	106.325	47.6589
35.500000	106.343	46.6300
36.000000	106.361	45.6102
36.500000	106.377	44.5935
37.000000	106.389	43.5890
37.500000	106.398	42.6119
38.200001	106.406	41.3045
38.700001	106.410	40.4061
39.500000	106.416	38.9952
40.000000	106.417	38.1181
40.599998	106.417	37.0730
41.200001	106.413	36.0476
41.799999	106.407	35.0540
42.500000	106.395	33.9459
43.099998	106.383	33.0413
43.700001	106.370	32.1670
44.400002	106.356	31.1598
45.000000	106.343	30.2951
45.500000	106.331	29.5797
46.200001	106.311	28.6107
46.799999	106.290	27.8268
47.500000	106.260	26.9668
48.200001	106.222	26.1515
48.700001	106.192	25.5868
49.400002	106.151	24.8033
50.000000	106.121	24.1209
50.799999	106.085	23.1851
51.500000	106.051	22.3658
52.200001	106.010	21.5768
53.000000	105.954	20.7200
53.799999	105.895	19.9028
54.500000	105.843	19.2237
55.200001	105.793	18.5782
56.000000	105.737	17.8642
57.000000	105.661	16.9924
58.000000	105.578	16.1568
59.000000	105.498	15.3547
60.000000	105.422	14.5771
60.799999	105.362	13.9658
61.500000	105.308	13.4359
62.200001	105.253	12.9209
63.000000	105.188	12.3669
64.000000	105.110	11.7278
65.000000	105.035	11.1259
66.000000	104.961	10.5508
67.000000	104.887	10.0002
68.000000	104.813	9.4661
69.000000	104.740	8.9428
70.000000	104.666	8.4238
71.000000	104.588	7.9083
72.000000	104.504	7.4135
73.000000	104.416	6.9609
74.000000	104.326	6.5655
75.000000	104.237	6.2226
76.199997	104.130	5.8338
77.500000	104.016	5.3921
78.800003	103.904	4.9347
80.000000	103.799	4.5288
81.199997	103.698	4.1723
82.500000	103.597	3.8528
83.800003	103.498	3.5699
85.000000	103.404	3.3137
86.199997	103.309	3.0622
87.500000	103.205	2.8072
88.500000	103.124	2.6227
90.000000	103.002	2.3660
91.199997	102.907	2.1933
92.500000	102.805	2.0488
93.800003	102.701	1.9410
95.000000	102.605	1.8594
96.199997	102.510	1.7849
97.500000	102.409	1.7145
98.800003	102.311	1.6655
100.000000	102.220	1.6373
101.500000	102.105	1.6209
103.000000	101.994	1.6320
104.400002	101.898	1.6653
106.000000	101.793	1.7305
107.500000	101.695	1.8187
109.000000	101.595	1.9238
110.599998	101.489	2.0534
112.000000	101.395	2.1871
113.800003	101.272	2.3798
115.000000	101.189	2.5199
117.199997	101.041	2.8158
118.000000	100.989	2.9372
120.599998	100.828	3.3697
122.000000	100.744	3.6172
124.099998	100.621	3.9879
125.000000	100.568	4.1472
126.500000	100.481	4.4219
128.000000	100.395	4.7030
131.500000	100.194	5.3028
132.000000	100.166	5.3839
134.000000	100.055	5.7151
136.000000	99.945	6.0551
138.000000	99.838	6.3957
140.000000	99.736	6.7571
143.000000	99.595	7.3519
145.000000	99.509	7.8105
147.500000	99.409	8.4849
150.000000	99.313	9.1911
152.500000	99.216	9.8853
155.000000	99.117	10.5749
157.500000	99.025	11.2767
160.000000	98.943	11.9625
162.500000	98.864	12.6467
165.000000	98.781	13.3529
167.500000	98.698	14.0531
170.000000	98.615	14.7472
172.500000	98.530	15.4721
175.000000	98.446	16.2243
177.500000	98.366	16.9632
180.000000	98.294	17.6807
182.500000	98.226	18.3911
185.000000	98.156	19.0898
187.500000	98.088	19.7871
190.000000	98.027	20.5207
192.500000	97.970	21.2931
195.000000	97.916	22.0703
197.500000	97.866	22.8249
200.000000	97.821	23.5537
203.000000	97.778	24.4030
206.000000	97.742	25.2010
209.000000	97.709	25.9643
212.000000	97.680	26.7525
214.000000	97.660	27.3058
218.000000	97.616	28.4636
220.000000	97.592	29.0523
224.000000	97.547	30.2137
227.000000	97.521	31.0645
230.000000	97.497	31.9010
233.000000	97.474	32.7310
236.000000	97.449	33.5634
240.000000	97.412	34.6757
243.000000	97.382	35.5259
247.000000	97.342	36.7274
250.000000	97.316	37.6857
254.000000	97.286	39.0068
258.000000	97.257	40.3371
262.000000	97.233	41.6933
265.000000	97.221	42.7495
269.000000	97.212	44.1940
272.000000	97.214	45.2806
276.000000	97.230	46.7082
280.000000	97.257	48.0740
285.000000	97.298	49.6298
290.000000	97.340	51.0250
295.000000	97.376	52.3210
300.000000	97.398	53.5388
304.000000	97.406	54.4599
307.000000	97.408	55.1186
311.000000	97.406	55.9627
315.000000	97.400	56.7820
320.000000	97.389	57.7895
325.000000	97.374	58.7922
330.000000	97.357	59.8080
335.000000	97.337	60.8331
340.000000	97.316	61.8502
345.000000	97.298	62.8645
350.000000	97.288	63.8849
355.000000	97.284	64.9156
360.000000	97.279	65.9724
365.000000	97.270	67.0306
370.000000	97.259	68.0690
375.000000	97.248	69.1000
382.000000	97.238	70.5165
387.000000	97.235	71.4892
395.000000	97.227	72.9734
400.000000	97.219	73.8719
406.000000	97.210	74.9428
412.000000	97.200	76.0323
418.000000	97.189	77.1443
425.000000	97.178	78.4363
431.000000	97.174	79.5051
437.000000	97.174	80.5624
444.000000	97.172	81.8278
450.000000	97.165	82.9639
455.000000	97.156	83.9619
462.000000	97.145	85.3980
468.000000	97.140	86.6045
475.000000	97.138	87.9978
482.000000	97.140	89.4434
487.000000	97.145	90.4982
494.000000	97.155	91.9569
500.000000	97.164	93.1703
508.000000	97.173	94.7365
515.000000	97.176	96.0910
522.000000	97.174	97.4796
530.000000	97.174	99.1050
538.000000	97.175	100.7124
545.000000	97.174	102.0815
552.000000	97.171	103.4254
560.000000	97.164	104.9454
570.000000	97.150	106.7945
580.000000	97.138	108.5693
590.000000	97.131	110.3004
600.000000	97.128	112.0011
608.000000	97.129	113.3472
615.000000	97.132	114.5251
622.000000	97.134	115.7060
630.000000	97.136	117.0530
640.000000	97.135	118.7250
650.000000	97.136	120.3936
660.000000	97.143	122.0861
670.000000	97.161	123.8226
680.000000	97.186	125.6087
690.000000	97.209	127.4192
700.000000	97.226	129.2216
710.000000	97.239	130.9871
720.000000	97.250	132.7011
730.000000	97.258	134.4241
740.000000	97.266	136.2208
750.000000	97.270	138.0848
762.000000	97.271	140.3831
775.000000	97.272	142.9502
788.000000	97.279	145.5225
800.000000	97.293	147.8843
812.000000	97.316	150.2080
825.000000	97.352	152.6629
838.000000	97.396	155.0947
850.000000	97.440	157.3260
862.000000	97.487	159.5508
875.000000	97.540	161.9528
885.000000	97.584	163.7930
900.000000	97.664	166.5416
912.000000	97.735	168.7160
925.000000	97.811	171.0479
938.000000	97.882	173.3501
950.000000	97.948	175.4296
962.000000	98.022	177.4822
975.000000	98.112	179.6703
988.000000	98.207	-178.2314
1000.000000	98.291	-176.4018
1015.000000	98.395	-174.2349
1030.000000	98.503	-172.1464
1044.000000	98.608	-170.2675
1060.000000	98.731	-168.2650
1075.000000	98.845	-166.5483
1090.000000	98.953	-164.9321
1106.000000	99.066	-163.2103
1120.000000	99.170	-161.5893
1138.000000	99.317	-159.2720
1150.000000	99.421	-157.6172
1172.000000	99.608	-154.4742
1180.000000	99.673	-153.3060
1206.000000	99.883	-149.3947
1220.000000	99.994	-147.2480
1241.000000	100.156	-144.0631
1250.000000	100.223	-142.7329
1265.000000	100.332	-140.5827
1280.000000	100.435	-138.5014
1315.000000	100.661	-133.6848
1320.000000	100.693	-132.9832
1340.000000	100.825	-130.1241
1360.000000	100.957	-127.2043
1380.000000	101.086	-124.2808
1400.000000	101.211	-121.3861
1430.000000	101.394	-117.1300
1450.000000	101.519	-114.4151
1475.000000	101.672	-111.2235
1500.000000	101.821	-108.2466
1525.000000	101.972	-105.4699
1550.000000	102.131	-102.7955
1575.000000	102.300	-100.1346
1600.000000	102.476	-97.4278
1625.000000	102.646	-94.6754
1650.000000	102.816	-91.8880
1675.000000	102.992	-89.0036
1700.000000	103.174	-86.0107
1725.000000	103.357	-82.9841
1750.000000	103.539	-80.0241
1775.000000	103.716	-77.1919
1800.000000	103.890	-74.4873
1825.000000	104.066	-71.8658
1850.000000	104.247	-69.2947
1875.000000	104.430	-66.7909
1900.000000	104.610	-64.4181
1925.000000	104.779	-62.2191
1950.000000	104.939	-60.1730
1975.000000	105.097	-58.1959
2000.000000	105.253	-56.1773
2030.000000	105.438	-53.5756
2060.000000	105.625	-50.7130
2090.000000	105.819	-47.6739
2120.000000	106.013	-44.7044
2140.000000	106.137	-42.8912
2180.000000	106.353	-39.7159
2200.000000	106.449	-38.2187
2240.000000	106.644	-34.9625
2270.000000	106.799	-32.2124
2300.000000	106.953	-29.3960
2330.000000	107.091	-26.7405
2360.000000	107.212	-24.3527
2400.000000	107.353	-21.5602
2430.000000	107.451	-19.6965
2470.000000	107.568	-17.4694
2500.000000	107.645	-15.9506
2540.000000	107.736	-14.0078
2580.000000	107.821	-12.0748
2620.000000	107.895	-10.2186
2650.000000	107.941	-8.9755
2690.000000	107.986	-7.6079
2720.000000	108.008	-6.7687
2760.000000	108.031	-5.7294
2800.000000	108.051	-4.6154
2850.000000	108.069	-3.0422
2900.000000	108.072	-1.3915
2950.000000	108.061	0.1473
3000.000000	108.030	1.5475
3040.000000	107.995	2.6918
3070.000000	107.966	3.6633
3110.000000	107.929	5.1526
3150.000000	107.890	6.7599
3200.000000	107.835	8.5946
3250.000000	107.766	9.8862
3300.000000	107.675	10.5921
3350.000000	107.576	11.0763
3400.000000	107.485	11.6613
3450.000000	107.393	12.2299
3500.000000	107.289	12.6034
3550.000000	107.182	12.8856
3600.000000	107.078	13.2224
3650.000000	106.974	13.5946
3700.000000	106.865	13.9684
3750.000000	106.757	14.3582
3820.000000	106.610	14.7475
3870.000000	106.498	14.7242
3950.000000	106.299	14.3179
4000.000000	106.171	14.1200
4060.000000	106.017	14.1077
4120.000000	105.862	14.3283
4180.000000	105.707	14.7464
4250.000000	105.527	15.4506
4310.000000	105.370	16.1749
4370.000000	105.214	16.9659
4440.000000	105.034	17.8862
4500.000000	104.879	18.5364
4550.000000	104.747	18.8938
4620.000000	104.556	19.0867
4680.000000	104.391	19.0430
4750.000000	104.197	18.7879
4820.000000	103.993	18.3366
4870.000000	103.839	18.0386
4940.000000	103.624	17.9896
5000.000000	103.443	18.4471
5080.000000	103.198	19.5980
5150.000000	102.974	20.8738
5220.000000	102.744	22.3656
5300.000000	102.480	24.4578
5380.000000	102.220	26.9434
5450.000000	101.996	29.1791
5520.000000	101.775	31.1927
5600.000000	101.524	33.0539
5700.000000	101.222	34.8213
5800.000000	100.949	36.2544
5900.000000	100.708	37.4198
6000.000000	100.497	38.4363
6080.000000	100.363	39.4408
6150.000000	100.276	40.4926
6220.000000	100.213	41.5621
6300.000000	100.167	42.6171
6400.000000	100.146	43.5939
6500.000000	100.170	44.3967
6600.000000	100.246	45.2657
6700.000000	100.373	46.1011
6800.000000	100.554	46.6675
6900.000000	100.797	46.8464
7000.000000	101.100	46.6605
7100.000000	101.463	46.2725
7200.000000	101.882	45.9832
7300.000000	102.357	46.0278
7400.000000	102.879	46.2712
7500.000000	103.429	46.1829
7620.000000	104.088	44.8136
7750.000000	104.731	41.2032
7880.000000	105.219	35.4957
8000.000000	105.454	29.0079
8120.000000	105.428	22.2758
8250.000000	105.092	15.9154
8380.000000	104.478	11.2606
8500.000000	103.728	8.1240
8620.000000	102.871	5.4269
8750.000000	101.903	2.7626
8850.000000	101.173	0.9116
9000.000000	100.140	-1.7121
9120.000000	99.384	-3.6636
9250.000000	98.641	-5.5629
9380.000000	97.960	-7.6006
9500.000000	97.373	-9.9955
9620.000000	96.824	-12.7495
9750.000000	96.284	-15.5725
9880.000000	95.801	-17.8322
10000.000000	95.397	-19.4382
10150.000000	94.941	-20.9733
10300.000000	94.542	-22.1459
10440.000000	94.206	-23.2119
10600.000000	93.850	-24.5567
10750.000000	93.549	-25.7797
10900.000000	93.298	-26.6212
11060.000000	93.098	-26.7804
11200.000000	92.978	-26.3634
11380.000000	92.893	-25.3572
11500.000000	92.879	-24.4478
11720.000000	92.944	-22.5182
11800.000000	93.000	-21.8813
12060.000000	93.306	-20.4976
12200.000000	93.564	-19.7794
12410.000000	94.106	-17.9033
12500.000000	94.396	-17.0211
12650.000000	94.947	-16.1899
12800.000000	95.570	-16.7834
13150.000000	97.130	-25.3385
13200.000000	97.335	-27.4606
13400.000000	98.000	-38.2820
13600.000000	98.276	-52.4319
13800.000000	98.040	-68.4447
14000.000000	97.283	-84.3737
14300.000000	95.402	-104.9377
14500.000000	93.884	-115.3021
14750.000000	91.941	-124.7538
15000.000000	90.144	-131.5351
15250.000000	88.625	-137.1750
15500.000000	87.453	-142.6202
15750.000000	86.620	-148.2105
16000.000000	85.969	-154.7390
16250.000000	85.373	-162.5299
16500.000000	84.931	-171.1125
16750.000000	84.720	-179.8006
17000.000000	84.674	171.8760
17250.000000	84.694	163.8408
17500.000000	84.710	155.9238
17750.000000	84.664	147.7776
18000.000000	84.507	138.8782
18250.000000	84.212	129.0152
18500.000000	83.783	118.8046
18750.000000	83.245	109.1961
19000.000000	82.615	100.8087
19250.000000	81.921	93.6803
19500.000000	81.228	87.8829
19750.000000	80.651	83.7036
20000.000000	80.331	81.4687
