* Measurement data measured by REW V5.30 beta 1
* Source: Microphone (USB Audio Device), MICROPHONE (Master Volume), R, volume: 0.250
* Format: 256k Log Swept Sine, 1 sweep at -12.0 dBFS with no timing reference
* Dated: 05-Nov-2023 21:39:35
* REW Settings:
*  C-weighting compensation: Off
*  Target level: 75.0 dB
* Note: 
* Measurement: Edifier X3 Lite R
* Smoothing: 1/12 octave
* Frequency Step: 1/48 octave
* Start Frequency: 20.300 Hz
*
* Freq(Hz)	SPL(dB)	Phase(degrees)
20.299999	85.209	38.2937
20.600000	85.250	37.4741
20.900000	85.301	36.4498
21.200001	85.356	35.3644
21.400000	85.392	34.6394
21.799999	85.465	33.2286
22.000000	85.502	32.5547
22.400000	85.579	31.2844
22.700001	85.641	30.3970
23.000000	85.704	29.5502
23.299999	85.769	28.7228
23.600000	85.830	27.8942
24.000000	85.900	26.7664
24.299999	85.942	25.9024
24.700001	85.984	24.7421
25.000000	86.009	23.8789
25.400000	86.042	22.7479
25.799999	86.078	21.6364
26.200001	86.121	20.5342
26.500000	86.155	19.7122
26.900000	86.197	18.6323
27.200001	86.225	17.8448
27.600000	86.256	16.8360
28.000000	86.283	15.8702
28.500000	86.315	14.6901
29.000000	86.346	13.4951
29.500000	86.376	12.2731
30.000000	86.407	11.0582
30.400000	86.432	10.1214
30.700001	86.451	9.4475
31.100000	86.477	8.5847
31.500000	86.501	7.7528
32.000000	86.522	6.7391
32.500000	86.533	5.7416
33.000000	86.534	4.7458
33.500000	86.534	3.7269
34.000000	86.538	2.6602
34.500000	86.545	1.5470
35.000000	86.551	0.4276
35.500000	86.553	-0.6397
36.000000	86.553	-1.6184
36.500000	86.556	-2.5211
37.000000	86.562	-3.3992
37.500000	86.568	-4.3041
38.200001	86.568	-5.6400
38.700001	86.562	-6.6082
39.500000	86.547	-8.0982
40.000000	86.538	-8.9810
40.599998	86.530	-10.0207
41.200001	86.523	-11.0857
41.799999	86.512	-12.1895
42.500000	86.485	-13.4228
43.099998	86.455	-14.2986
43.700001	86.435	-14.9937
44.400002	86.431	-15.7639
45.000000	86.426	-16.5526
45.500000	86.408	-17.3195
46.200001	86.368	-18.4983
46.799999	86.333	-19.5599
47.500000	86.296	-20.8010
48.200001	86.261	-21.9459
48.700001	86.236	-22.6677
49.400002	86.202	-23.5792
50.000000	86.167	-24.3359
50.799999	86.106	-25.3760
51.500000	86.047	-26.3137
52.200001	85.994	-27.2590
53.000000	85.949	-28.3428
53.799999	85.911	-29.4403
54.500000	85.872	-30.3995
55.200001	85.818	-31.3096
56.000000	85.747	-32.2418
57.000000	85.667	-33.3077
58.000000	85.599	-34.4276
59.000000	85.529	-35.5895
60.000000	85.456	-36.6913
60.799999	85.399	-37.5339
61.500000	85.346	-38.2506
62.200001	85.288	-38.9522
63.000000	85.219	-39.7566
64.000000	85.132	-40.7915
65.000000	85.049	-41.8502
66.000000	84.967	-42.9276
67.000000	84.877	-43.9917
68.000000	84.781	-44.9882
69.000000	84.692	-45.9069
70.000000	84.616	-46.7710
71.000000	84.540	-47.6158
72.000000	84.448	-48.4667
73.000000	84.341	-49.3406
74.000000	84.233	-50.2481
75.000000	84.130	-51.1617
76.199997	84.010	-52.2016
77.500000	83.876	-53.2354
78.800003	83.744	-54.2248
80.000000	83.628	-55.1400
81.199997	83.517	-56.0606
82.500000	83.398	-57.0502
83.800003	83.274	-58.0084
85.000000	83.152	-58.8679
86.199997	83.023	-59.7198
87.500000	82.883	-60.6323
88.500000	82.777	-61.3228
90.000000	82.621	-62.3298
91.199997	82.498	-63.0857
92.500000	82.362	-63.8488
93.800003	82.223	-64.5800
95.000000	82.094	-65.2437
96.199997	81.963	-65.9094
97.500000	81.820	-66.6489
98.800003	81.674	-67.3930
100.000000	81.540	-68.0505
101.500000	81.377	-68.8107
103.000000	81.217	-69.5151
104.400002	81.066	-70.1534
106.000000	80.890	-70.8915
107.500000	80.724	-71.5788
109.000000	80.562	-72.2246
110.599998	80.391	-72.8648
112.000000	80.239	-73.4000
113.800003	80.039	-74.0608
115.000000	79.906	-74.4962
117.199997	79.667	-75.3001
118.000000	79.583	-75.5861
120.599998	79.308	-76.4647
122.000000	79.160	-76.9149
124.099998	78.936	-77.5951
125.000000	78.838	-77.8936
126.500000	78.673	-78.3951
128.000000	78.503	-78.8780
131.500000	78.107	-79.8240
132.000000	78.050	-79.9432
134.000000	77.826	-80.3994
136.000000	77.607	-80.8172
138.000000	77.394	-81.1816
140.000000	77.190	-81.4823
143.000000	76.898	-81.7659
145.000000	76.709	-81.8272
147.500000	76.475	-81.8037
150.000000	76.249	-81.7561
152.500000	76.027	-81.6605
155.000000	75.805	-81.4739
157.500000	75.579	-81.2553
160.000000	75.355	-81.0239
162.500000	75.140	-80.7519
165.000000	74.940	-80.4415
167.500000	74.752	-80.1092
170.000000	74.574	-79.7613
172.500000	74.401	-79.3909
175.000000	74.232	-78.9880
177.500000	74.074	-78.5337
180.000000	73.926	-78.0101
182.500000	73.780	-77.4267
185.000000	73.626	-76.8118
187.500000	73.462	-76.1996
190.000000	73.299	-75.5810
192.500000	73.148	-74.9487
195.000000	73.016	-74.3284
197.500000	72.906	-73.7258
200.000000	72.818	-73.1248
203.000000	72.738	-72.4132
206.000000	72.682	-71.7064
209.000000	72.645	-71.0015
212.000000	72.613	-70.3105
214.000000	72.590	-69.8568
218.000000	72.541	-68.9784
220.000000	72.518	-68.5689
224.000000	72.475	-67.7999
227.000000	72.443	-67.2396
230.000000	72.411	-66.6949
233.000000	72.385	-66.1779
236.000000	72.366	-65.6884
240.000000	72.342	-65.0603
243.000000	72.323	-64.6016
247.000000	72.296	-64.0015
250.000000	72.280	-63.5731
254.000000	72.270	-63.0357
258.000000	72.268	-62.5154
262.000000	72.266	-61.9604
265.000000	72.266	-61.5055
269.000000	72.270	-60.8765
272.000000	72.279	-60.4206
276.000000	72.308	-59.8500
280.000000	72.363	-59.3147
285.000000	72.458	-58.6958
290.000000	72.575	-58.1036
295.000000	72.717	-57.6059
300.000000	72.896	-57.3510
304.000000	73.060	-57.4196
307.000000	73.182	-57.6640
311.000000	73.327	-58.2357
315.000000	73.436	-59.0140
320.000000	73.517	-60.1054
325.000000	73.549	-61.1575
330.000000	73.549	-62.0775
335.000000	73.531	-62.8865
340.000000	73.505	-63.6154
345.000000	73.479	-64.2460
350.000000	73.451	-64.7800
355.000000	73.418	-65.2299
360.000000	73.381	-65.6011
365.000000	73.348	-65.9092
370.000000	73.323	-66.1696
375.000000	73.306	-66.3796
382.000000	73.295	-66.5940
387.000000	73.301	-66.7137
395.000000	73.348	-66.8680
400.000000	73.399	-66.9976
406.000000	73.469	-67.2747
412.000000	73.531	-67.6742
418.000000	73.574	-68.1374
425.000000	73.594	-68.7339
431.000000	73.590	-69.2522
437.000000	73.575	-69.7097
444.000000	73.557	-70.1363
450.000000	73.548	-70.4147
455.000000	73.545	-70.5835
462.000000	73.545	-70.7321
468.000000	73.550	-70.8120
475.000000	73.558	-70.8951
482.000000	73.568	-70.9917
487.000000	73.577	-71.0843
494.000000	73.590	-71.2686
500.000000	73.598	-71.4828
508.000000	73.607	-71.8446
515.000000	73.612	-72.2270
522.000000	73.619	-72.6637
530.000000	73.632	-73.2175
538.000000	73.647	-73.8007
545.000000	73.658	-74.3066
552.000000	73.668	-74.8022
560.000000	73.678	-75.3415
570.000000	73.696	-75.9539
580.000000	73.722	-76.5262
590.000000	73.749	-77.0613
600.000000	73.772	-77.5534
608.000000	73.790	-77.9355
615.000000	73.809	-78.2640
622.000000	73.828	-78.5809
630.000000	73.850	-78.9144
640.000000	73.874	-79.2478
650.000000	73.902	-79.4826
660.000000	73.940	-79.6508
670.000000	73.984	-79.7536
680.000000	74.030	-79.8032
690.000000	74.073	-79.8648
700.000000	74.112	-79.9746
710.000000	74.150	-80.1175
720.000000	74.186	-80.2769
730.000000	74.219	-80.4319
740.000000	74.254	-80.5663
750.000000	74.291	-80.7155
762.000000	74.333	-80.9517
775.000000	74.376	-81.2211
788.000000	74.418	-81.4750
800.000000	74.461	-81.7185
812.000000	74.507	-82.0007
825.000000	74.552	-82.3645
838.000000	74.589	-82.7861
850.000000	74.625	-83.2194
862.000000	74.669	-83.6734
875.000000	74.723	-84.1564
885.000000	74.763	-84.5073
900.000000	74.815	-84.9923
912.000000	74.852	-85.3577
925.000000	74.893	-85.7372
938.000000	74.935	-86.1117
950.000000	74.973	-86.4831
962.000000	75.008	-86.8976
975.000000	75.044	-87.3802
988.000000	75.080	-87.8745
1000.000000	75.118	-88.3280
1015.000000	75.174	-88.8687
1030.000000	75.235	-89.3630
1044.000000	75.291	-89.7971
1060.000000	75.354	-90.3020
1075.000000	75.411	-90.8254
1090.000000	75.465	-91.4003
1106.000000	75.524	-92.0182
1120.000000	75.582	-92.5077
1138.000000	75.666	-93.0107
1150.000000	75.729	-93.2708
1172.000000	75.852	-93.6973
1180.000000	75.897	-93.8553
1206.000000	76.046	-94.3791
1220.000000	76.136	-94.6541
1241.000000	76.290	-95.0242
1250.000000	76.363	-95.1606
1265.000000	76.491	-95.3662
1280.000000	76.626	-95.5595
1315.000000	76.922	-95.9885
1320.000000	76.956	-96.0453
1340.000000	77.066	-96.2339
1360.000000	77.131	-96.3447
1380.000000	77.164	-96.4046
1400.000000	77.183	-96.4978
1430.000000	77.228	-96.8603
1450.000000	77.286	-97.2338
1475.000000	77.393	-97.7721
1500.000000	77.527	-98.2969
1525.000000	77.682	-98.7003
1550.000000	77.857	-98.9377
1575.000000	78.038	-99.0673
1600.000000	78.209	-99.2048
1625.000000	78.367	-99.3876
1650.000000	78.520	-99.5417
1675.000000	78.678	-99.5737
1700.000000	78.838	-99.4422
1725.000000	79.000	-99.1804
1750.000000	79.161	-98.8607
1775.000000	79.317	-98.5239
1800.000000	79.472	-98.1768
1825.000000	79.634	-97.8148
1850.000000	79.802	-97.4732
1875.000000	79.970	-97.2354
1900.000000	80.134	-97.1768
1925.000000	80.292	-97.3212
1950.000000	80.445	-97.6336
1975.000000	80.596	-98.0596
2000.000000	80.749	-98.5462
2030.000000	80.936	-99.1575
2060.000000	81.126	-99.7596
2090.000000	81.321	-100.3371
2120.000000	81.516	-100.9252
2140.000000	81.646	-101.3457
2180.000000	81.911	-102.2900
2200.000000	82.046	-102.8083
2240.000000	82.325	-103.8853
2270.000000	82.539	-104.7002
2300.000000	82.756	-105.5567
2330.000000	82.973	-106.5503
2360.000000	83.185	-107.7670
2400.000000	83.462	-109.7282
2430.000000	83.669	-111.3498
2470.000000	83.949	-113.5465
2500.000000	84.157	-115.1546
2540.000000	84.433	-117.2095
2580.000000	84.703	-119.2160
2620.000000	84.961	-121.2869
2650.000000	85.147	-122.9011
2690.000000	85.389	-125.0676
2720.000000	85.567	-126.6722
2760.000000	85.795	-128.8027
2800.000000	86.010	-130.9561
2850.000000	86.262	-133.6974
2900.000000	86.488	-136.4783
2950.000000	86.685	-139.1205
3000.000000	86.861	-141.3346
3040.000000	86.992	-142.7675
3070.000000	87.082	-143.7631
3110.000000	87.185	-145.1633
3150.000000	87.270	-146.7595
3200.000000	87.356	-149.0117
3250.000000	87.422	-151.4096
3300.000000	87.470	-153.8274
3350.000000	87.502	-156.2524
3400.000000	87.515	-158.7429
3450.000000	87.508	-161.3120
3500.000000	87.486	-163.8969
3550.000000	87.451	-166.4352
3600.000000	87.408	-168.9024
3650.000000	87.365	-171.3303
3700.000000	87.325	-173.8359
3750.000000	87.288	-176.5363
3820.000000	87.238	179.4372
3870.000000	87.205	176.6381
3950.000000	87.155	172.6172
4000.000000	87.114	170.3259
4060.000000	87.052	167.7591
4120.000000	86.977	165.5074
4180.000000	86.890	163.7329
4250.000000	86.778	162.4651
4310.000000	86.680	162.1039
4370.000000	86.586	162.2695
4440.000000	86.491	162.8774
4500.000000	86.429	163.6416
4550.000000	86.396	164.4427
4620.000000	86.376	165.7610
4680.000000	86.375	166.8921
4750.000000	86.383	168.0003
4820.000000	86.400	168.8587
4870.000000	86.420	169.3513
4940.000000	86.457	169.8566
5000.000000	86.497	170.0748
5080.000000	86.562	170.0917
5150.000000	86.635	170.0165
5220.000000	86.727	170.1038
5300.000000	86.859	170.5830
5380.000000	87.013	171.3184
5450.000000	87.162	171.9282
5520.000000	87.329	172.4246
5600.000000	87.556	172.8816
5700.000000	87.899	173.0594
5800.000000	88.291	172.4583
5900.000000	88.742	171.4539
6000.000000	89.241	170.2342
6080.000000	89.644	168.7394
6150.000000	89.979	166.8785
6220.000000	90.288	164.5577
6300.000000	90.592	161.5063
6400.000000	90.870	157.3803
6500.000000	91.005	153.3665
6600.000000	90.970	149.8106
6700.000000	90.744	146.7406
6800.000000	90.339	144.2897
6900.000000	89.789	142.6737
7000.000000	89.136	141.9492
7100.000000	88.432	142.1522
7200.000000	87.730	143.2216
7300.000000	87.061	144.7682
7400.000000	86.448	146.2230
7500.000000	85.905	147.1317
7620.000000	85.363	147.4405
7750.000000	84.913	147.5312
7880.000000	84.566	148.2106
8000.000000	84.304	149.4337
8120.000000	84.082	150.9199
8250.000000	83.908	152.7042
8380.000000	83.829	154.4827
8500.000000	83.852	155.8846
8620.000000	83.954	156.7495
8750.000000	84.110	156.6370
8850.000000	84.228	155.6499
9000.000000	84.340	152.6984
9120.000000	84.327	149.2566
9250.000000	84.171	144.7869
9380.000000	83.841	140.0434
9500.000000	83.385	136.0284
9620.000000	82.793	132.7492
9750.000000	82.021	130.2772
9880.000000	81.150	129.2188
10000.000000	80.302	129.7113
10150.000000	79.244	132.2594
10300.000000	78.232	136.3630
10440.000000	77.353	140.9734
10600.000000	76.443	146.5186
10750.000000	75.686	151.3748
10900.000000	75.012	155.6770
11060.000000	74.380	159.7509
11200.000000	73.897	163.0339
11380.000000	73.370	167.3004
11500.000000	73.076	170.3310
11720.000000	72.650	175.9348
11800.000000	72.529	177.8141
12060.000000	72.251	-176.9974
12200.000000	72.173	-174.2814
12410.000000	72.158	-169.3419
12500.000000	72.186	-166.8658
12650.000000	72.273	-162.3079
12800.000000	72.405	-157.1730
13150.000000	72.866	-143.6158
13200.000000	72.951	-141.6427
13400.000000	73.386	-133.8063
13600.000000	74.050	-126.1336
13800.000000	74.998	-119.5358
14000.000000	76.157	-116.0390
14300.000000	77.891	-119.4679
14500.000000	78.709	-127.1660
14750.000000	78.999	-140.2811
15000.000000	78.359	-153.2847
15250.000000	76.963	-162.1521
15500.000000	75.119	-165.3304
15750.000000	73.136	-163.9783
16000.000000	71.291	-159.8462
16250.000000	69.811	-153.6600
16500.000000	68.801	-145.4753
16750.000000	68.254	-135.8767
17000.000000	68.112	-126.3766
17250.000000	68.305	-118.0372
17500.000000	68.759	-111.3811
17750.000000	69.354	-107.1349
18000.000000	69.934	-105.6381
18250.000000	70.341	-106.6451
18500.000000	70.454	-109.4408
18750.000000	70.251	-112.8411
19000.000000	69.813	-115.4109
19250.000000	69.254	-116.2920
19500.000000	68.664	-115.5353
19750.000000	68.135	-113.8373
20000.000000	67.813	-112.5060
