* Measurement data measured by REW V5.20.13
* Source: Microphone (2- USB Audio Device), MICROPHONE (Master Volume), L, volume: 0.250. Timing signal peak level -30.9 dBFS, measurement signal peak level -30.9 dBFS
* Format: 256k Log Swept Sine, 1 sweep at -12.0 dBFS using an acoustic timing reference
* Dated: 04-May-2023 12:47:27
* REW Settings:
*  C-weighting compensation: Off
*  Target level: 75.0 dB
* Note: 
* Measurement: Edifier NeoBuds Pro R
* Smoothing: 1/12 octave
* Frequency Step: 1/48 octave
* Start Frequency: 20.000 Hz
*
* Freq(Hz)	SPL(dB)	Phase(degrees)
20.000000	67.180	-81.0102
20.299999	67.331	-80.7242
20.600000	67.457	-80.4629
20.900000	67.561	-80.2275
21.200001	67.646	-80.0238
21.400000	67.696	-79.9106
21.799999	67.783	-79.7552
22.000000	67.824	-79.7246
22.400000	67.911	-79.7869
22.700001	67.983	-79.9630
23.000000	68.062	-80.2600
23.299999	68.148	-80.6674
23.600000	68.241	-81.1644
24.000000	68.379	-81.9265
24.299999	68.493	-82.5432
24.700001	68.658	-83.3984
25.000000	68.790	-84.0473
25.400000	68.971	-84.8939
25.799999	69.150	-85.6738
26.200001	69.324	-86.3407
26.500000	69.450	-86.7527
26.900000	69.613	-87.1902
27.200001	69.731	-87.4534
27.600000	69.881	-87.7511
28.000000	70.019	-88.0259
28.500000	70.169	-88.3804
29.000000	70.291	-88.7724
29.500000	70.387	-89.2077
30.000000	70.464	-89.6859
30.400000	70.517	-90.1043
30.700001	70.554	-90.4434
31.100000	70.601	-90.9318
31.500000	70.647	-91.4544
32.000000	70.703	-92.1246
32.500000	70.759	-92.7660
33.000000	70.817	-93.3386
33.500000	70.878	-93.8284
34.000000	70.939	-94.2343
34.500000	70.996	-94.5549
35.000000	71.045	-94.7859
35.500000	71.084	-94.9268
36.000000	71.115	-94.9861
36.500000	71.140	-94.9813
37.000000	71.158	-94.9356
37.500000	71.172	-94.8691
38.200001	71.183	-94.7670
38.700001	71.187	-94.6960
39.500000	71.191	-94.5799
40.000000	71.193	-94.4871
40.599998	71.200	-94.3301
41.200001	71.213	-94.1161
41.799999	71.234	-93.8619
42.500000	71.260	-93.5328
43.099998	71.275	-93.2064
43.700001	71.285	-92.8090
44.400002	71.295	-92.2509
45.000000	71.308	-91.7246
45.500000	71.322	-91.2818
46.200001	71.344	-90.6781
46.799999	71.366	-90.1773
47.500000	71.395	-89.6067
48.200001	71.428	-89.0454
48.700001	71.454	-88.6434
49.400002	71.489	-88.0638
50.000000	71.515	-87.5420
50.799999	71.544	-86.8158
51.500000	71.569	-86.1697
52.200001	71.597	-85.5295
53.000000	71.637	-84.8159
53.799999	71.682	-84.1256
54.500000	71.725	-83.5348
55.200001	71.769	-82.9467
56.000000	71.817	-82.2704
57.000000	71.875	-81.4105
58.000000	71.930	-80.5433
59.000000	71.984	-79.7145
60.000000	72.031	-78.9497
60.799999	72.066	-78.3716
61.500000	72.095	-77.8826
62.200001	72.123	-77.4077
63.000000	72.155	-76.8796
64.000000	72.188	-76.2290
65.000000	72.210	-75.5589
66.000000	72.220	-74.8437
67.000000	72.220	-74.0895
68.000000	72.210	-73.3201
69.000000	72.191	-72.5546
70.000000	72.165	-71.8077
71.000000	72.133	-71.0797
72.000000	72.096	-70.3488
73.000000	72.055	-69.5960
74.000000	72.009	-68.8117
75.000000	71.955	-67.9880
76.199997	71.879	-66.9468
77.500000	71.779	-65.7436
78.800003	71.664	-64.4355
80.000000	71.549	-63.1406
81.199997	71.428	-61.7681
82.500000	71.294	-60.1848
83.800003	71.161	-58.5103
85.000000	71.037	-56.9019
86.199997	70.910	-55.2416
87.500000	70.766	-53.3884
88.500000	70.652	-51.9215
90.000000	70.477	-49.6333
91.199997	70.338	-47.7111
92.500000	70.192	-45.5427
93.800003	70.051	-43.3099
95.000000	69.922	-41.2123
96.199997	69.793	-39.0870
97.500000	69.654	-36.7491
98.800003	69.518	-34.3639
100.000000	69.396	-32.1098
101.500000	69.249	-29.2078
103.000000	69.102	-26.2067
104.400002	68.963	-23.3235
106.000000	68.810	-19.9615
107.500000	68.679	-16.7894
109.000000	68.563	-13.6319
110.599998	68.448	-10.2758
112.000000	68.348	-7.3217
113.800003	68.215	-3.4723
115.000000	68.123	-0.8737
117.199997	67.950	3.9524
118.000000	67.889	5.7282
120.599998	67.701	11.5788
122.000000	67.608	14.7758
124.099998	67.474	19.6115
125.000000	67.416	21.6952
126.500000	67.318	25.1895
128.000000	67.224	28.7199
131.500000	67.057	36.9477
132.000000	67.037	38.1087
134.000000	66.954	42.7486
136.000000	66.862	47.4406
138.000000	66.765	52.2256
140.000000	66.674	57.0932
143.000000	66.560	64.4561
145.000000	66.490	69.3638
147.500000	66.401	75.4901
150.000000	66.312	81.6121
152.500000	66.229	87.7010
155.000000	66.145	93.7275
157.500000	66.057	99.7284
160.000000	65.976	105.7378
162.500000	65.903	111.7881
165.000000	65.836	117.9065
167.500000	65.772	124.0599
170.000000	65.709	130.2038
172.500000	65.647	136.3423
175.000000	65.586	142.4902
177.500000	65.517	148.6457
180.000000	65.435	154.8150
182.500000	65.336	161.0360
185.000000	65.221	167.3489
187.500000	65.093	173.7541
190.000000	64.957	-179.7793
192.500000	64.828	-173.2646
195.000000	64.720	-166.6940
197.500000	64.647	-160.0704
200.000000	64.610	-153.4132
203.000000	64.611	-145.4097
206.000000	64.644	-137.4329
209.000000	64.679	-129.5334
212.000000	64.700	-121.7324
214.000000	64.706	-116.5765
218.000000	64.703	-106.2867
220.000000	64.694	-101.1195
224.000000	64.661	-90.7351
227.000000	64.625	-82.9162
230.000000	64.583	-75.0779
233.000000	64.539	-67.2420
236.000000	64.502	-59.4159
240.000000	64.465	-48.9576
243.000000	64.442	-41.0804
247.000000	64.408	-30.5411
250.000000	64.379	-22.6143
254.000000	64.340	-12.0266
258.000000	64.303	-1.4142
262.000000	64.268	9.2408
265.000000	64.243	17.2700
269.000000	64.213	28.0352
272.000000	64.193	36.1389
276.000000	64.170	46.9456
280.000000	64.146	57.7394
285.000000	64.109	71.2535
290.000000	64.067	84.8446
295.000000	64.031	98.5214
300.000000	64.005	112.2773
304.000000	63.989	123.3116
307.000000	63.980	131.5800
311.000000	63.966	142.5852
315.000000	63.949	153.5859
320.000000	63.925	167.3541
325.000000	63.899	-178.8693
330.000000	63.870	-165.1033
335.000000	63.840	-151.3259
340.000000	63.818	-137.4974
345.000000	63.807	-123.6287
350.000000	63.799	-109.7439
355.000000	63.786	-95.8511
360.000000	63.768	-81.9537
365.000000	63.747	-68.0228
370.000000	63.727	-54.0258
375.000000	63.707	-39.9567
382.000000	63.682	-20.1417
387.000000	63.666	-5.9407
395.000000	63.647	16.7717
400.000000	63.637	30.9859
406.000000	63.618	48.1072
412.000000	63.587	65.3150
418.000000	63.551	82.5925
425.000000	63.516	102.7996
431.000000	63.488	120.1412
437.000000	63.456	137.4803
444.000000	63.417	157.6898
450.000000	63.390	175.0244
455.000000	63.377	-170.4814
462.000000	63.372	-150.0641
468.000000	63.369	-132.4590
475.000000	63.356	-111.8811
482.000000	63.332	-91.2891
487.000000	63.311	-76.5531
494.000000	63.278	-55.8535
500.000000	63.253	-38.0314
508.000000	63.224	-14.2072
515.000000	63.202	6.6189
522.000000	63.180	27.4178
530.000000	63.153	51.2139
538.000000	63.117	75.0621
545.000000	63.081	95.9617
552.000000	63.046	116.9026
560.000000	63.012	140.9062
570.000000	62.969	170.9984
580.000000	62.926	-158.8208
590.000000	62.885	-128.4885
600.000000	62.847	-98.0271
608.000000	62.823	-73.5896
615.000000	62.808	-52.1597
622.000000	62.797	-30.6993
630.000000	62.784	-6.1483
640.000000	62.763	24.6017
650.000000	62.741	55.4509
660.000000	62.731	86.3903
670.000000	62.739	117.3943
680.000000	62.757	148.4390
690.000000	62.773	179.5009
700.000000	62.778	-149.4174
710.000000	62.776	-118.2766
720.000000	62.772	-87.0369
730.000000	62.771	-55.6909
740.000000	62.780	-24.2582
750.000000	62.801	7.2710
762.000000	62.835	45.2485
775.000000	62.872	86.4990
788.000000	62.906	127.7930
800.000000	62.928	165.9724
812.000000	62.941	-155.6738
825.000000	62.960	-113.7817
838.000000	62.995	-71.4722
850.000000	63.046	-32.0557
862.000000	63.106	7.6770
875.000000	63.171	50.9863
885.000000	63.218	84.4238
900.000000	63.291	134.6934
912.000000	63.353	174.9785
925.000000	63.427	-141.2747
938.000000	63.504	-97.4067
950.000000	63.578	-56.8374
962.000000	63.656	-16.2266
975.000000	63.747	27.8232
988.000000	63.843	71.9600
1000.000000	63.928	112.7686
1015.000000	64.026	163.8281
1030.000000	64.122	-145.0825
1044.000000	64.212	-97.3975
1060.000000	64.314	-42.8955
1075.000000	64.404	8.2432
1090.000000	64.492	59.4404
1106.000000	64.587	114.1294
1120.000000	64.674	162.0718
1138.000000	64.783	-136.1545
1150.000000	64.847	-94.8975
1172.000000	64.954	-19.1570
1180.000000	64.994	8.4023
1206.000000	65.131	98.0002
1220.000000	65.201	146.2742
1241.000000	65.303	-141.2283
1250.000000	65.349	-110.1055
1265.000000	65.434	-58.1416
1280.000000	65.527	-6.0513
1315.000000	65.705	116.0117
1320.000000	65.720	133.5103
1340.000000	65.749	-156.3223
1360.000000	65.729	-85.8403
1380.000000	65.679	-15.0601
1400.000000	65.620	55.9302
1430.000000	65.550	162.7124
1450.000000	65.534	-125.8779
1475.000000	65.549	-36.4072
1500.000000	65.583	53.1895
1525.000000	65.627	142.8223
1550.000000	65.675	-127.4629
1575.000000	65.730	-37.4771
1600.000000	65.794	52.9438
1625.000000	65.865	143.8174
1650.000000	65.941	-124.9614
1675.000000	66.016	-33.5278
1700.000000	66.083	58.0225
1725.000000	66.142	149.6426
1750.000000	66.207	-118.6719
1775.000000	66.279	-26.9219
1800.000000	66.349	64.8877
1825.000000	66.411	156.7759
1850.000000	66.466	-111.2334
1875.000000	66.512	-19.1392
1900.000000	66.551	73.0962
1925.000000	66.589	165.5444
1950.000000	66.627	-101.7666
1975.000000	66.660	-8.8687
2000.000000	66.686	84.2119
2030.000000	66.713	-163.8311
2060.000000	66.735	-51.5605
2090.000000	66.751	61.0220
2120.000000	66.762	173.8843
2140.000000	66.771	-110.7285
2180.000000	66.799	40.4556
2200.000000	66.822	116.2920
2240.000000	66.883	-91.5205
2270.000000	66.943	23.0088
2300.000000	67.015	137.7739
2330.000000	67.100	-107.3379
2360.000000	67.195	7.5879
2400.000000	67.331	160.8223
2430.000000	67.438	-84.2832
2470.000000	67.583	68.8945
2500.000000	67.693	-176.1729
2540.000000	67.841	-22.8252
2580.000000	67.988	130.6133
2620.000000	68.125	-75.8477
2650.000000	68.221	39.4414
2690.000000	68.332	-166.5459
2720.000000	68.401	-50.7773
2760.000000	68.476	103.9004
2800.000000	68.531	-101.1602
2850.000000	68.565	92.8203
2900.000000	68.566	-72.7402
2950.000000	68.539	122.1992
3000.000000	68.480	-42.4414
3040.000000	68.405	114.1250
3070.000000	68.328	-128.3311
3110.000000	68.196	28.4805
3150.000000	68.033	-174.6543
3200.000000	67.796	21.4980
3250.000000	67.522	-142.2812
3300.000000	67.206	53.9785
3350.000000	66.850	-109.7285
3400.000000	66.451	86.6328
3450.000000	66.019	-76.8613
3500.000000	65.568	119.8457
3550.000000	65.112	-43.3057
3600.000000	64.663	153.5615
3650.000000	64.238	-9.6260
3700.000000	63.854	-172.8340
3750.000000	63.539	24.0449
3820.000000	63.262	-59.9951
3870.000000	63.208	137.4307
3950.000000	63.385	94.0898
4000.000000	63.644	-67.2607
4060.000000	64.075	171.9941
4120.000000	64.608	52.1055
4180.000000	65.211	-67.0781
4250.000000	65.947	-145.4170
4310.000000	66.560	96.4844
4370.000000	67.121	-21.2783
4440.000000	67.659	-98.4141
4500.000000	67.980	144.1377
4550.000000	68.124	-13.6484
4620.000000	68.117	-90.1758
4680.000000	67.915	153.5293
4750.000000	67.475	79.2480
4820.000000	66.859	6.9219
4870.000000	66.337	-146.2793
4940.000000	65.526	145.0938
5000.000000	64.783	36.4668
5080.000000	63.759	13.7441
5150.000000	62.860	-49.3555
5220.000000	61.983	-110.9551
5300.000000	61.024	-128.2031
5380.000000	60.116	-143.6113
5450.000000	59.369	159.4141
5520.000000	58.676	103.7539
5600.000000	57.966	93.1387
5700.000000	57.241	172.1445
5800.000000	56.714	-107.0996
5900.000000	56.378	-25.6211
6000.000000	56.228	56.2148
6080.000000	56.221	50.0117
6150.000000	56.280	-0.0078
6220.000000	56.390	-49.5605
6300.000000	56.565	-54.2539
6400.000000	56.845	30.3594
6500.000000	57.188	115.3984
6600.000000	57.585	-159.0352
6700.000000	58.037	-72.9668
6800.000000	58.548	13.3711
6900.000000	59.120	99.7305
7000.000000	59.755	-173.9492
7100.000000	60.465	-87.5156
7200.000000	61.265	-0.8789
7300.000000	62.165	85.9473
7400.000000	63.177	173.0176
7500.000000	64.312	-99.5859
7620.000000	65.809	77.4570
7750.000000	67.502	-61.2012
7880.000000	69.118	159.0781
8000.000000	70.377	-26.9297
8120.000000	71.260	145.2051
8250.000000	71.669	0.8379
8380.000000	71.464	-142.0977
8500.000000	70.791	33.6875
8620.000000	69.797	-146.6250
8750.000000	68.542	82.3555
8850.000000	67.554	178.1016
9000.000000	66.158	145.4102
9120.000000	65.163	-22.1016
9250.000000	64.222	-141.3711
9380.000000	63.423	101.3516
9500.000000	62.809	-60.7969
9620.000000	62.308	138.1641
9750.000000	61.880	24.4414
9880.000000	61.549	-89.1406
10000.000000	61.316	110.4922
10150.000000	61.112	90.1758
10300.000000	60.998	70.8672
10440.000000	60.957	6.3438
10600.000000	60.962	37.1484
10750.000000	60.999	22.2344
10900.000000	61.071	8.2734
11060.000000	61.187	42.4922
11200.000000	61.296	-16.7344
11380.000000	61.380	113.5156
11500.000000	61.369	-39.3945
11720.000000	61.172	-78.8828
11800.000000	61.041	-60.0469
12060.000000	60.410	93.5547
12200.000000	59.959	39.3438
12410.000000	59.173	-39.7422
12500.000000	58.810	30.1680
12650.000000	58.189	28.0391
12800.000000	57.558	27.6172
13150.000000	56.076	-87.4297
13200.000000	55.865	153.8242
13400.000000	55.043	39.7539
13600.000000	54.312	-73.2070
13800.000000	53.755	174.5977
14000.000000	53.418	63.2812
14300.000000	53.373	79.6484
14500.000000	53.674	-26.4961
14750.000000	54.422	113.4219
15000.000000	55.561	-104.8125
15250.000000	56.991	37.8047
15500.000000	58.528	179.6719
15750.000000	59.988	-40.6875
16000.000000	61.111	95.9609
16250.000000	61.577	-129.4766
16500.000000	61.233	6.8672
16750.000000	60.200	148.8438
17000.000000	58.811	-62.4219
17250.000000	57.456	92.3047
17500.000000	56.445	-108.3906
17750.000000	55.939	53.9688
18000.000000	55.936	-141.9922
18250.000000	56.304	22.6094
18500.000000	56.833	-173.6562
18750.000000	57.312	-13.4453
19000.000000	57.586	135.4766
19250.000000	57.580	-110.5703
19500.000000	57.317	-90.9141
19750.000000	56.922	79.1797
