* Measurement data measured by REW V5.31.3
* Source: Microphone (6- USB Sound Device        ), MICROPHONE (Master Volume), L, volume: 0.700
* Format: 256k Log Swept Sine, 1 sweep at -12.0 dBFS with no timing reference
* Dated: 27-May-2025 14:20:04
* REW Settings:
*  C-weighting compensation: Off
*  Target level: 75.0 dB
* Note: 
* Measurement: EPZ Q1 Pro R
* Smoothing: 1/12 octave
* Frequency Step: 1/48 octave
* Start Frequency: 20.300 Hz
*
* Freq(Hz)	SPL(dB)	Phase(degrees)
20.299999	89.006	-162.1726
20.600000	89.006	-162.5607
20.900000	89.004	-163.0497
21.200001	89.002	-163.5775
21.400000	89.000	-163.9387
21.799999	88.996	-164.6696
22.000000	88.994	-165.0347
22.400000	88.993	-165.7531
22.700001	88.993	-166.2738
23.000000	88.995	-166.7751
23.299999	88.998	-167.2570
23.600000	89.000	-167.7228
24.000000	89.002	-168.3269
24.299999	89.002	-168.7725
24.700001	88.998	-169.3612
25.000000	88.993	-169.7987
25.400000	88.985	-170.3741
25.799999	88.976	-170.9371
26.200001	88.965	-171.4855
26.500000	88.957	-171.8876
26.900000	88.945	-172.4132
27.200001	88.936	-172.8016
27.600000	88.923	-173.3145
28.000000	88.909	-173.8245
28.500000	88.891	-174.4598
29.000000	88.870	-175.0910
29.500000	88.849	-175.7117
30.000000	88.828	-176.3145
30.400000	88.812	-176.7807
30.700001	88.799	-177.1209
31.100000	88.784	-177.5634
31.500000	88.769	-177.9950
32.000000	88.751	-178.5217
32.500000	88.733	-179.0346
33.000000	88.715	-179.5329
33.500000	88.695	179.9830
34.000000	88.673	179.5118
34.500000	88.650	179.0514
35.000000	88.625	178.5991
35.500000	88.599	178.1517
36.000000	88.574	177.7071
36.500000	88.549	177.2652
37.000000	88.524	176.8297
37.500000	88.499	176.4055
38.200001	88.461	175.8368
38.700001	88.433	175.4473
39.500000	88.386	174.8404
40.000000	88.356	174.4674
40.599998	88.319	174.0303
41.200001	88.284	173.6089
41.799999	88.252	173.1985
42.500000	88.218	172.7209
43.099998	88.186	172.3137
43.700001	88.153	171.9191
44.400002	88.114	171.4799
45.000000	88.082	171.1165
45.500000	88.055	170.8209
46.200001	88.015	170.4212
46.799999	87.980	170.0901
47.500000	87.942	169.7082
48.200001	87.907	169.3275
48.700001	87.885	169.0598
49.400002	87.856	168.6955
50.000000	87.829	168.3926
50.799999	87.782	167.9977
51.500000	87.735	167.6581
52.200001	87.687	167.3247
53.000000	87.635	166.9558
53.799999	87.586	166.6044
54.500000	87.544	166.3095
55.200001	87.504	166.0233
56.000000	87.458	165.7062
57.000000	87.402	165.3261
58.000000	87.345	164.9642
59.000000	87.288	164.6196
60.000000	87.232	164.2821
60.799999	87.188	164.0142
61.500000	87.150	163.7846
62.200001	87.113	163.5612
63.000000	87.071	163.3135
64.000000	87.019	163.0146
65.000000	86.967	162.7258
66.000000	86.917	162.4484
67.000000	86.867	162.1827
68.000000	86.816	161.9271
69.000000	86.762	161.6830
70.000000	86.708	161.4490
71.000000	86.656	161.2223
72.000000	86.605	161.0054
73.000000	86.556	160.7993
74.000000	86.508	160.6014
75.000000	86.460	160.4119
76.199997	86.402	160.1970
77.500000	86.339	159.9755
78.800003	86.276	159.7634
80.000000	86.219	159.5779
81.199997	86.162	159.3995
82.500000	86.102	159.2158
83.800003	86.044	159.0458
85.000000	85.991	158.8991
86.199997	85.939	158.7579
87.500000	85.883	158.6106
88.500000	85.839	158.5038
90.000000	85.775	158.3561
91.199997	85.725	158.2468
92.500000	85.673	158.1350
93.800003	85.622	158.0303
95.000000	85.574	157.9428
96.199997	85.526	157.8656
97.500000	85.474	157.7894
98.800003	85.423	157.7128
100.000000	85.378	157.6384
101.500000	85.324	157.5464
103.000000	85.273	157.4638
104.400002	85.227	157.3978
106.000000	85.174	157.3299
107.500000	85.124	157.2687
109.000000	85.072	157.2074
110.599998	85.018	157.1429
112.000000	84.971	157.0904
113.800003	84.912	157.0312
115.000000	84.873	156.9974
117.199997	84.802	156.9454
118.000000	84.777	156.9297
120.599998	84.699	156.8922
122.000000	84.659	156.8762
124.099998	84.601	156.8518
125.000000	84.576	156.8439
126.500000	84.536	156.8367
128.000000	84.495	156.8369
131.500000	84.401	156.8684
132.000000	84.387	156.8765
134.000000	84.334	156.9163
136.000000	84.280	156.9649
138.000000	84.226	157.0175
140.000000	84.174	157.0748
143.000000	84.102	157.1706
145.000000	84.057	157.2314
147.500000	84.005	157.2880
150.000000	83.957	157.3322
152.500000	83.912	157.3808
155.000000	83.866	157.4240
157.500000	83.818	157.4667
160.000000	83.770	157.5188
162.500000	83.724	157.5764
165.000000	83.681	157.6425
167.500000	83.641	157.7168
170.000000	83.601	157.8007
172.500000	83.562	157.8909
175.000000	83.523	157.9844
177.500000	83.482	158.0798
180.000000	83.435	158.1769
182.500000	83.380	158.2767
185.000000	83.315	158.3790
187.500000	83.241	158.4849
190.000000	83.163	158.5935
192.500000	83.091	158.7039
195.000000	83.030	158.8163
197.500000	82.983	158.9305
200.000000	82.949	159.0463
203.000000	82.924	159.1883
206.000000	82.914	159.3350
209.000000	82.909	159.4880
212.000000	82.902	159.6472
214.000000	82.892	159.7570
218.000000	82.862	159.9862
220.000000	82.842	160.1059
224.000000	82.795	160.3611
227.000000	82.758	160.5699
230.000000	82.721	160.7912
233.000000	82.688	161.0199
236.000000	82.659	161.2487
240.000000	82.627	161.5485
243.000000	82.604	161.7706
247.000000	82.571	162.0630
250.000000	82.546	162.2805
254.000000	82.517	162.5798
258.000000	82.495	162.8983
262.000000	82.480	163.2300
265.000000	82.474	163.4758
269.000000	82.473	163.7772
272.000000	82.477	163.9678
276.000000	82.486	164.1567
280.000000	82.496	164.2687
285.000000	82.500	164.3267
290.000000	82.492	164.3428
295.000000	82.473	164.3646
300.000000	82.446	164.4179
304.000000	82.422	164.4884
307.000000	82.402	164.5569
311.000000	82.376	164.6661
315.000000	82.350	164.7930
320.000000	82.320	164.9729
325.000000	82.294	165.1675
330.000000	82.270	165.3679
335.000000	82.250	165.5736
340.000000	82.233	165.7871
345.000000	82.220	166.0056
350.000000	82.204	166.2242
355.000000	82.184	166.4392
360.000000	82.166	166.6491
365.000000	82.150	166.8549
370.000000	82.137	167.0574
375.000000	82.123	167.2563
382.000000	82.103	167.5295
387.000000	82.089	167.7223
395.000000	82.070	168.0313
400.000000	82.059	168.2287
406.000000	82.047	168.4727
412.000000	82.035	168.7249
418.000000	82.023	168.9821
425.000000	82.013	169.2787
431.000000	82.006	169.5217
437.000000	82.000	169.7521
444.000000	81.991	170.0103
450.000000	81.984	170.2295
455.000000	81.978	170.4139
462.000000	81.971	170.6779
468.000000	81.965	170.9124
475.000000	81.959	171.1945
482.000000	81.953	171.4822
487.000000	81.948	171.6902
494.000000	81.941	171.9841
500.000000	81.936	172.2379
508.000000	81.933	172.5765
515.000000	81.933	172.8712
522.000000	81.933	173.1662
530.000000	81.932	173.5078
538.000000	81.933	173.8568
545.000000	81.934	174.1687
552.000000	81.940	174.4846
560.000000	81.950	174.8432
570.000000	81.969	175.2731
580.000000	81.988	175.6730
590.000000	82.006	176.0463
600.000000	82.020	176.4070
608.000000	82.028	176.6973
615.000000	82.034	176.9569
622.000000	82.040	177.2233
630.000000	82.048	177.5361
640.000000	82.059	177.9377
650.000000	82.072	178.3483
660.000000	82.090	178.7680
670.000000	82.110	179.1968
680.000000	82.130	179.6313
690.000000	82.150	-179.9324
700.000000	82.171	-179.4976
710.000000	82.196	-179.0651
720.000000	82.222	-178.6329
730.000000	82.250	-178.1978
740.000000	82.280	-177.7584
750.000000	82.311	-177.3166
762.000000	82.350	-176.7861
775.000000	82.393	-176.2091
788.000000	82.441	-175.6263
800.000000	82.488	-175.0845
812.000000	82.539	-174.5437
825.000000	82.596	-173.9638
838.000000	82.657	-173.3955
850.000000	82.718	-172.8854
862.000000	82.785	-172.3906
875.000000	82.863	-171.8720
885.000000	82.926	-171.4854
900.000000	83.025	-170.9250
912.000000	83.107	-170.4935
925.000000	83.198	-170.0436
938.000000	83.291	-169.6140
950.000000	83.381	-169.2366
962.000000	83.473	-168.8792
975.000000	83.576	-168.5182
988.000000	83.683	-168.1879
1000.000000	83.784	-167.9125
1015.000000	83.909	-167.6102
1030.000000	84.034	-167.3539
1044.000000	84.151	-167.1550
1060.000000	84.283	-166.9740
1075.000000	84.407	-166.8464
1090.000000	84.528	-166.7570
1106.000000	84.654	-166.7050
1120.000000	84.764	-166.7002
1138.000000	84.903	-166.7558
1150.000000	84.992	-166.8337
1172.000000	85.144	-167.0528
1180.000000	85.194	-167.1477
1206.000000	85.337	-167.4071
1220.000000	85.408	-167.4414
1241.000000	85.533	-167.3006
1250.000000	85.600	-167.1926
1265.000000	85.729	-167.0059
1280.000000	85.875	-166.8574
1315.000000	86.213	-166.7419
1320.000000	86.254	-166.7470
1340.000000	86.388	-166.8018
1360.000000	86.471	-166.8939
1380.000000	86.515	-167.0076
1400.000000	86.544	-167.1342
1430.000000	86.603	-167.3387
1450.000000	86.669	-167.4808
1475.000000	86.781	-167.6638
1500.000000	86.916	-167.8525
1525.000000	87.066	-168.0484
1550.000000	87.221	-168.2545
1575.000000	87.377	-168.4724
1600.000000	87.529	-168.7036
1625.000000	87.680	-168.9500
1650.000000	87.828	-169.2133
1675.000000	87.973	-169.4940
1700.000000	88.117	-169.7925
1725.000000	88.259	-170.1108
1750.000000	88.399	-170.4506
1775.000000	88.538	-170.8130
1800.000000	88.674	-171.1997
1825.000000	88.808	-171.6123
1850.000000	88.940	-172.0519
1875.000000	89.070	-172.5196
1900.000000	89.196	-173.0146
1925.000000	89.318	-173.5349
1950.000000	89.436	-174.0793
1975.000000	89.551	-174.6458
2000.000000	89.661	-175.2326
2030.000000	89.789	-175.9618
2060.000000	89.912	-176.7158
2090.000000	90.031	-177.4925
2120.000000	90.143	-178.2905
2140.000000	90.216	-178.8335
2180.000000	90.353	-179.9447
2200.000000	90.418	179.4881
2240.000000	90.540	178.3351
2270.000000	90.624	177.4586
2300.000000	90.701	176.5753
2330.000000	90.773	175.6884
2360.000000	90.837	174.8015
2400.000000	90.911	173.6260
2430.000000	90.960	172.7550
2470.000000	91.016	171.6127
2500.000000	91.052	170.7740
2540.000000	91.090	169.6854
2580.000000	91.120	168.6366
2620.000000	91.143	167.6344
2650.000000	91.157	166.9167
2690.000000	91.173	166.0055
2720.000000	91.183	165.3558
2760.000000	91.195	164.5307
2800.000000	91.208	163.7469
2850.000000	91.223	162.8175
2900.000000	91.238	161.9355
2950.000000	91.250	161.0972
3000.000000	91.257	160.3016
3040.000000	91.262	159.6953
3070.000000	91.265	159.2574
3110.000000	91.271	158.6946
3150.000000	91.279	158.1541
3200.000000	91.293	157.5065
3250.000000	91.312	156.8850
3300.000000	91.334	156.2831
3350.000000	91.359	155.6925
3400.000000	91.383	155.1035
3450.000000	91.406	154.5062
3500.000000	91.428	153.8917
3550.000000	91.449	153.2528
3600.000000	91.473	152.5824
3650.000000	91.503	151.8749
3700.000000	91.541	151.1262
3750.000000	91.590	150.3325
3820.000000	91.669	149.1397
3870.000000	91.729	148.2257
3950.000000	91.817	146.6509
4000.000000	91.859	145.5986
4060.000000	91.888	144.2730
4120.000000	91.887	142.8904
4180.000000	91.853	141.4667
4250.000000	91.774	139.7741
4310.000000	91.678	138.3144
4370.000000	91.562	136.8625
4440.000000	91.413	135.1959
4500.000000	91.281	133.8052
4550.000000	91.168	132.6824
4620.000000	91.003	131.1794
4680.000000	90.852	129.9666
4750.000000	90.659	128.6537
4820.000000	90.445	127.4650
4870.000000	90.279	126.7001
4940.000000	90.028	125.7573
5000.000000	89.797	125.0753
5080.000000	89.471	124.3565
5150.000000	89.170	123.9145
5220.000000	88.855	123.6552
5300.000000	88.482	123.5898
5380.000000	88.098	123.7753
5450.000000	87.758	124.1430
5520.000000	87.419	124.6985
5600.000000	87.043	125.5565
5700.000000	86.596	126.9453
5800.000000	86.183	128.6571
5900.000000	85.811	130.6595
6000.000000	85.484	132.9191
6080.000000	85.248	134.8892
6150.000000	85.056	136.7177
6220.000000	84.876	138.6354
6300.000000	84.687	140.9260
6400.000000	84.481	143.9182
6500.000000	84.316	147.0280
6600.000000	84.197	150.2241
6700.000000	84.129	153.4769
6800.000000	84.118	156.7596
6900.000000	84.167	160.0402
7000.000000	84.277	163.2800
7100.000000	84.453	166.4334
7200.000000	84.703	169.4459
7300.000000	85.027	172.2621
7400.000000	85.428	174.8293
7500.000000	85.906	177.0869
7620.000000	86.567	179.2770
7750.000000	87.344	-179.1744
7880.000000	88.109	-178.7347
8000.000000	88.754	-179.5467
8120.000000	89.304	178.3026
8250.000000	89.750	174.4240
8380.000000	89.989	169.1686
8500.000000	89.981	163.5810
8620.000000	89.731	157.9291
8750.000000	89.199	152.4873
8850.000000	88.635	149.1838
9000.000000	87.619	146.0661
9120.000000	86.728	145.2238
9250.000000	85.754	145.8387
9380.000000	84.822	147.8058
9500.000000	84.032	150.5945
9620.000000	83.331	154.1284
9750.000000	82.682	158.6334
9880.000000	82.151	163.7211
10000.000000	81.768	168.8716
10150.000000	81.446	175.8894
10300.000000	81.323	-176.4520
10440.000000	81.435	-168.7720
10600.000000	81.921	-159.7095
10750.000000	82.795	-151.8195
10900.000000	84.048	-145.8813
11060.000000	85.621	-143.0469
11200.000000	86.999	-143.9622
11380.000000	88.523	-149.3940
11500.000000	89.289	-155.1476
11720.000000	90.031	-168.5788
11800.000000	90.064	-173.9104
12060.000000	89.288	169.7628
12200.000000	88.387	162.9082
12410.000000	86.631	156.4282
12500.000000	85.800	155.1130
12650.000000	84.397	154.7146
12800.000000	83.034	156.2452
13150.000000	80.192	164.9460
13200.000000	79.827	166.5700
13400.000000	78.468	173.6148
13600.000000	77.304	-178.7986
13800.000000	76.391	-170.9763
14000.000000	75.752	-163.1182
14300.000000	75.267	-151.6048
14500.000000	75.207	-144.3738
14750.000000	75.336	-136.1985
15000.000000	75.593	-129.3067
15250.000000	75.865	-123.9563
15500.000000	76.049	-120.2519
15750.000000	76.093	-118.0170
16000.000000	76.015	-116.7664
16250.000000	75.858	-115.8575
16500.000000	75.657	-114.7269
16750.000000	75.448	-113.0795
17000.000000	75.271	-110.9757
17250.000000	75.151	-108.8368
17500.000000	75.068	-107.3073
17750.000000	74.945	-106.9205
18000.000000	74.663	-107.7218
18250.000000	74.109	-109.1425
18500.000000	73.216	-110.1985
18750.000000	71.995	-109.8406
19000.000000	70.520	-107.2582
19250.000000	68.893	-102.0380
19500.000000	67.231	-94.3494
19750.000000	65.728	-85.5419
20000.000000	64.788	-79.2323
