* Measurement data measured by REW V5.31.3
* Source: Microphone (USB Sound Device        ), MICROPHONE (Master Volume), L, volume: 0.700
* Format: 256k Log Swept Sine, 1 sweep at -12.0 dBFS with no timing reference
* Dated: 07-Feb-2025 14:19:31
* REW Settings:
*  C-weighting compensation: Off
*  Target level: 75.0 dB
* Note: 
* Measurement: EPZ G10 L
* Smoothing: 1/12 octave
* Frequency Step: 1/48 octave
* Start Frequency: 20.300 Hz
*
* Freq(Hz)	SPL(dB)	Phase(degrees)
20.299999	79.861	-153.6658
20.600000	79.866	-154.1832
20.900000	79.870	-154.8315
21.200001	79.874	-155.5255
21.400000	79.876	-155.9969
21.799999	79.878	-156.9424
22.000000	79.879	-157.4114
22.400000	79.881	-158.3315
22.700001	79.882	-159.0000
23.000000	79.884	-159.6481
23.299999	79.886	-160.2774
23.600000	79.887	-160.8910
24.000000	79.887	-161.6906
24.299999	79.883	-162.2786
24.700001	79.877	-163.0478
25.000000	79.870	-163.6126
25.400000	79.860	-164.3484
25.799999	79.850	-165.0649
26.200001	79.840	-165.7632
26.500000	79.831	-166.2759
26.900000	79.818	-166.9451
27.200001	79.808	-167.4366
27.600000	79.792	-168.0786
28.000000	79.777	-168.7070
28.500000	79.756	-169.4751
29.000000	79.734	-170.2242
29.500000	79.712	-170.9525
30.000000	79.689	-171.6587
30.400000	79.670	-172.2084
30.700001	79.655	-172.6125
31.100000	79.634	-173.1413
31.500000	79.612	-173.6595
32.000000	79.586	-174.2925
32.500000	79.560	-174.9094
33.000000	79.533	-175.5106
33.500000	79.507	-176.0966
34.000000	79.479	-176.6677
34.500000	79.452	-177.2240
35.000000	79.423	-177.7657
35.500000	79.393	-178.2929
36.000000	79.363	-178.8062
36.500000	79.333	-179.3067
37.000000	79.303	-179.7960
37.500000	79.273	179.7247
38.200001	79.227	179.0710
38.700001	79.193	178.6181
39.500000	79.138	177.9186
40.000000	79.104	177.4958
40.599998	79.064	177.0019
41.200001	79.025	176.5226
41.799999	78.988	176.0577
42.500000	78.945	175.5325
43.099998	78.907	175.0965
43.700001	78.867	174.6730
44.400002	78.821	174.1935
45.000000	78.781	173.7939
45.500000	78.747	173.4689
46.200001	78.699	173.0261
46.799999	78.658	172.6577
47.500000	78.613	172.2416
48.200001	78.572	171.8415
48.700001	78.546	171.5644
49.400002	78.512	171.1854
50.000000	78.478	170.8671
50.799999	78.423	170.4537
51.500000	78.367	170.1052
52.200001	78.312	169.7699
53.000000	78.252	169.4009
53.799999	78.196	169.0441
54.500000	78.149	168.7413
55.200001	78.102	168.4487
56.000000	78.050	168.1274
57.000000	77.984	167.7432
58.000000	77.919	167.3756
59.000000	77.855	167.0236
60.000000	77.792	166.6877
60.799999	77.742	166.4303
61.500000	77.698	166.2121
62.200001	77.656	166.0000
63.000000	77.608	165.7655
64.000000	77.549	165.4853
65.000000	77.491	165.2193
66.000000	77.433	164.9661
67.000000	77.376	164.7249
68.000000	77.318	164.4950
69.000000	77.258	164.2758
70.000000	77.197	164.0673
71.000000	77.139	163.8694
72.000000	77.083	163.6822
73.000000	77.029	163.5044
74.000000	76.976	163.3350
75.000000	76.924	163.1743
76.199997	76.860	162.9940
77.500000	76.791	162.8128
78.800003	76.723	162.6431
80.000000	76.661	162.4969
81.199997	76.600	162.3620
82.500000	76.535	162.2283
83.800003	76.473	162.1057
85.000000	76.417	161.9997
86.199997	76.360	161.9006
87.500000	76.298	161.8012
88.500000	76.251	161.7299
90.000000	76.181	161.6333
91.199997	76.126	161.5655
92.500000	76.068	161.5007
93.800003	76.011	161.4437
95.000000	75.958	161.3972
96.199997	75.905	161.3571
97.500000	75.848	161.3209
98.800003	75.791	161.2911
100.000000	75.740	161.2681
101.500000	75.680	161.2426
103.000000	75.625	161.2200
104.400002	75.574	161.2045
106.000000	75.515	161.1959
107.500000	75.459	161.1978
109.000000	75.402	161.2083
110.599998	75.343	161.2270
112.000000	75.292	161.2494
113.800003	75.228	161.2866
115.000000	75.186	161.3159
117.199997	75.110	161.3783
118.000000	75.083	161.4041
120.599998	74.998	161.4989
122.000000	74.954	161.5554
124.099998	74.890	161.6459
125.000000	74.864	161.6864
126.500000	74.820	161.7556
128.000000	74.776	161.8270
131.500000	74.677	161.9991
132.000000	74.663	162.0238
134.000000	74.608	162.1233
136.000000	74.553	162.2257
138.000000	74.498	162.3335
140.000000	74.444	162.4461
143.000000	74.366	162.6225
145.000000	74.315	162.7452
147.500000	74.253	162.9042
150.000000	74.194	163.0704
152.500000	74.139	163.2449
155.000000	74.086	163.4261
157.500000	74.033	163.6130
160.000000	73.982	163.8035
162.500000	73.935	163.9935
165.000000	73.893	164.1811
167.500000	73.853	164.3661
170.000000	73.813	164.5508
172.500000	73.773	164.7372
175.000000	73.733	164.9252
177.500000	73.691	165.1158
180.000000	73.643	165.3095
182.500000	73.588	165.5053
185.000000	73.522	165.7029
187.500000	73.447	165.9028
190.000000	73.368	166.1059
192.500000	73.294	166.3120
195.000000	73.232	166.5200
197.500000	73.184	166.7294
200.000000	73.148	166.9409
203.000000	73.122	167.1980
206.000000	73.110	167.4588
209.000000	73.104	167.7240
212.000000	73.096	167.9948
214.000000	73.086	168.1785
218.000000	73.054	168.5540
220.000000	73.034	168.7458
224.000000	72.989	169.1360
227.000000	72.953	169.4328
230.000000	72.917	169.7321
233.000000	72.883	170.0322
236.000000	72.851	170.3289
240.000000	72.812	170.7145
243.000000	72.783	170.9988
247.000000	72.742	171.3773
250.000000	72.710	171.6646
254.000000	72.670	172.0598
258.000000	72.633	172.4769
262.000000	72.598	172.9220
265.000000	72.574	173.2762
269.000000	72.546	173.7747
272.000000	72.530	174.1667
276.000000	72.517	174.7074
280.000000	72.519	175.2464
285.000000	72.540	175.8478
290.000000	72.574	176.2865
295.000000	72.604	176.5455
300.000000	72.616	176.6909
304.000000	72.610	176.7835
307.000000	72.599	176.8604
311.000000	72.576	176.9879
315.000000	72.549	177.1527
320.000000	72.514	177.4098
325.000000	72.481	177.7131
330.000000	72.452	178.0466
335.000000	72.428	178.3928
340.000000	72.409	178.7437
345.000000	72.391	179.1038
350.000000	72.370	179.4794
355.000000	72.345	179.8719
360.000000	72.323	-179.7215
365.000000	72.308	-179.3073
370.000000	72.299	-178.8952
375.000000	72.292	-178.4947
382.000000	72.286	-177.9665
387.000000	72.283	-177.6159
395.000000	72.279	-177.0912
400.000000	72.276	-176.7735
406.000000	72.271	-176.3918
412.000000	72.264	-176.0061
418.000000	72.256	-175.6148
425.000000	72.248	-175.1516
431.000000	72.244	-174.7522
437.000000	72.240	-174.3568
444.000000	72.237	-173.9090
450.000000	72.237	-173.5398
455.000000	72.238	-173.2419
462.000000	72.239	-172.8358
468.000000	72.239	-172.4913
475.000000	72.238	-172.0855
482.000000	72.234	-171.6697
487.000000	72.231	-171.3663
494.000000	72.226	-170.9359
500.000000	72.223	-170.5655
508.000000	72.222	-170.0747
515.000000	72.222	-169.6484
522.000000	72.222	-169.2225
530.000000	72.221	-168.7319
538.000000	72.220	-168.2332
545.000000	72.219	-167.7902
552.000000	72.219	-167.3430
560.000000	72.223	-166.8287
570.000000	72.231	-166.1825
580.000000	72.240	-165.5340
590.000000	72.251	-164.8881
600.000000	72.263	-164.2489
608.000000	72.273	-163.7433
615.000000	72.282	-163.3033
622.000000	72.291	-162.8631
630.000000	72.302	-162.3565
640.000000	72.317	-161.7145
650.000000	72.336	-161.0626
660.000000	72.361	-160.4094
670.000000	72.390	-159.7670
680.000000	72.418	-159.1409
690.000000	72.445	-158.5276
700.000000	72.471	-157.9189
710.000000	72.498	-157.3080
720.000000	72.525	-156.6911
730.000000	72.555	-156.0672
740.000000	72.587	-155.4376
750.000000	72.621	-154.8048
762.000000	72.663	-154.0442
775.000000	72.710	-153.2193
788.000000	72.761	-152.3953
800.000000	72.812	-151.6355
812.000000	72.865	-150.8777
825.000000	72.925	-150.0614
838.000000	72.989	-149.2520
850.000000	73.051	-148.5143
862.000000	73.119	-147.7890
875.000000	73.198	-147.0213
885.000000	73.262	-146.4461
900.000000	73.361	-145.6117
912.000000	73.441	-144.9697
925.000000	73.530	-144.2980
938.000000	73.621	-143.6500
950.000000	73.707	-143.0745
962.000000	73.795	-142.5225
975.000000	73.894	-141.9538
988.000000	73.995	-141.4187
1000.000000	74.090	-140.9569
1015.000000	74.209	-140.4233
1030.000000	74.328	-139.9373
1044.000000	74.440	-139.5253
1060.000000	74.568	-139.1013
1075.000000	74.686	-138.7451
1090.000000	74.801	-138.4242
1106.000000	74.922	-138.1171
1120.000000	75.027	-137.8769
1138.000000	75.163	-137.6082
1150.000000	75.253	-137.4562
1172.000000	75.416	-137.2369
1180.000000	75.474	-137.1764
1206.000000	75.663	-137.0468
1220.000000	75.762	-137.0099
1241.000000	75.908	-136.9595
1250.000000	75.970	-136.9227
1265.000000	76.074	-136.8166
1280.000000	76.181	-136.6408
1315.000000	76.428	-136.0209
1320.000000	76.459	-135.9221
1340.000000	76.562	-135.5279
1360.000000	76.626	-135.1481
1380.000000	76.659	-134.7933
1400.000000	76.685	-134.4723
1430.000000	76.749	-134.0583
1450.000000	76.820	-133.8197
1475.000000	76.941	-133.5507
1500.000000	77.087	-133.3039
1525.000000	77.247	-133.0759
1550.000000	77.415	-132.8682
1575.000000	77.584	-132.6842
1600.000000	77.750	-132.5258
1625.000000	77.914	-132.3927
1650.000000	78.076	-132.2827
1675.000000	78.235	-132.1934
1700.000000	78.392	-132.1229
1725.000000	78.549	-132.0700
1750.000000	78.706	-132.0365
1775.000000	78.862	-132.0280
1800.000000	79.018	-132.0516
1825.000000	79.175	-132.1135
1850.000000	79.332	-132.2156
1875.000000	79.487	-132.3566
1900.000000	79.641	-132.5348
1925.000000	79.792	-132.7507
1950.000000	79.941	-133.0059
1975.000000	80.088	-133.3018
2000.000000	80.232	-133.6390
2030.000000	80.401	-134.0992
2060.000000	80.566	-134.6196
2090.000000	80.726	-135.1974
2120.000000	80.878	-135.8271
2140.000000	80.975	-136.2719
2180.000000	81.161	-137.2128
2200.000000	81.249	-137.7059
2240.000000	81.418	-138.7352
2270.000000	81.537	-139.5445
2300.000000	81.650	-140.3863
2330.000000	81.755	-141.2608
2360.000000	81.852	-142.1665
2400.000000	81.967	-143.4151
2430.000000	82.042	-144.3739
2470.000000	82.127	-145.6671
2500.000000	82.179	-146.6387
2540.000000	82.234	-147.9216
2580.000000	82.273	-149.1764
2620.000000	82.298	-150.3914
2650.000000	82.309	-151.2710
2690.000000	82.314	-152.3965
2720.000000	82.311	-153.2018
2760.000000	82.299	-154.2197
2800.000000	82.281	-155.1707
2850.000000	82.253	-156.2627
2900.000000	82.219	-157.2470
2950.000000	82.183	-158.1274
3000.000000	82.143	-158.9106
3040.000000	82.111	-159.4736
3070.000000	82.088	-159.8625
3110.000000	82.059	-160.3411
3150.000000	82.033	-160.7791
3200.000000	82.007	-161.2770
3250.000000	81.987	-161.7283
3300.000000	81.971	-162.1422
3350.000000	81.959	-162.5280
3400.000000	81.949	-162.8946
3450.000000	81.939	-163.2513
3500.000000	81.931	-163.6083
3550.000000	81.926	-163.9760
3600.000000	81.928	-164.3651
3650.000000	81.940	-164.7865
3700.000000	81.965	-165.2510
3750.000000	82.003	-165.7685
3820.000000	82.075	-166.6003
3870.000000	82.133	-167.2824
3950.000000	82.220	-168.5441
4000.000000	82.261	-169.4452
4060.000000	82.289	-170.6413
4120.000000	82.283	-171.9550
4180.000000	82.238	-173.3687
4250.000000	82.132	-175.1043
4310.000000	81.996	-176.6178
4370.000000	81.820	-178.0960
4440.000000	81.573	-179.6849
4500.000000	81.333	179.1568
4550.000000	81.116	178.3951
4620.000000	80.794	177.7289
4680.000000	80.507	177.5975
4750.000000	80.175	178.0139
4820.000000	79.868	179.0508
4870.000000	79.679	-179.8632
4940.000000	79.477	-177.9680
5000.000000	79.376	-176.1400
5080.000000	79.353	-173.7053
5150.000000	79.428	-171.8480
5220.000000	79.568	-170.4565
5300.000000	79.768	-169.5727
5380.000000	79.966	-169.4529
5450.000000	80.110	-169.8925
5520.000000	80.211	-170.7168
5600.000000	80.266	-171.9575
5700.000000	80.241	-173.6747
5800.000000	80.126	-175.2904
5900.000000	79.946	-176.5973
6000.000000	79.723	-177.4828
6080.000000	79.524	-177.8624
6150.000000	79.338	-177.9585
6220.000000	79.145	-177.8465
6300.000000	78.923	-177.4843
6400.000000	78.655	-176.7197
6500.000000	78.410	-175.6585
6600.000000	78.197	-174.3512
6700.000000	78.026	-172.8494
6800.000000	77.906	-171.2130
6900.000000	77.838	-169.5054
7000.000000	77.822	-167.7742
7100.000000	77.862	-166.0597
7200.000000	77.966	-164.4101
7300.000000	78.139	-162.8774
7400.000000	78.382	-161.5152
7500.000000	78.700	-160.3873
7620.000000	79.169	-159.4608
7750.000000	79.740	-159.1760
7880.000000	80.302	-159.8888
8000.000000	80.759	-161.6495
8120.000000	81.124	-164.6145
8250.000000	81.376	-169.2023
8380.000000	81.439	-174.9909
8500.000000	81.291	179.0621
8620.000000	80.921	173.1539
8750.000000	80.283	167.5376
8850.000000	79.657	164.1683
9000.000000	78.584	161.0205
9120.000000	77.687	160.1357
9250.000000	76.748	160.5776
9380.000000	75.890	162.1473
9500.000000	75.196	164.3202
9620.000000	74.609	166.9796
9750.000000	74.098	170.2354
9880.000000	73.711	173.7420
10000.000000	73.461	177.1050
10150.000000	73.291	-178.6414
10300.000000	73.272	-174.4748
10440.000000	73.389	-170.8233
10600.000000	73.681	-167.1789
10750.000000	74.104	-164.5815
10900.000000	74.641	-163.1288
11060.000000	75.267	-163.1810
11200.000000	75.769	-164.6752
11380.000000	76.206	-168.1814
11500.000000	76.316	-170.9335
11720.000000	76.211	-175.0828
11800.000000	76.141	-176.0150
12060.000000	76.151	-177.9654
12200.000000	76.310	-179.7348
12410.000000	76.467	175.4826
12500.000000	76.422	172.8735
12650.000000	76.146	168.4255
12800.000000	75.625	164.5216
13150.000000	73.769	160.0124
13200.000000	73.468	159.9364
13400.000000	72.264	160.8082
13600.000000	71.178	163.0458
13800.000000	70.331	165.9862
14000.000000	69.772	169.0727
14300.000000	69.423	173.0128
14500.000000	69.424	174.6718
14750.000000	69.535	175.2819
15000.000000	69.611	174.2248
15250.000000	69.497	171.8190
15500.000000	69.080	168.7261
15750.000000	68.346	165.9106
16000.000000	67.431	164.2433
16250.000000	66.533	164.1511
16500.000000	65.821	165.5733
16750.000000	65.382	168.0397
17000.000000	65.230	170.8070
17250.000000	65.320	173.0657
17500.000000	65.569	174.1498
17750.000000	65.880	173.6461
18000.000000	66.141	171.4473
18250.000000	66.235	167.7923
18500.000000	66.057	163.2451
18750.000000	65.555	158.5628
19000.000000	64.740	154.4678
19250.000000	63.669	151.4557
19500.000000	62.436	149.7100
19750.000000	61.234	149.0751
20000.000000	60.456	149.0411
