* Measurement data measured by REW V5.20.13
* Source: Microphone (4- USB Audio Device), MICROPHONE (Master Volume), L, volume: 0.250. Timing signal peak level -33.7 dBFS, measurement signal peak level -22.7 dBFS
* Format: 256k Log Swept Sine, 1 sweep at -12.0 dBFS using an acoustic timing reference
* Dated: 06-Apr-2023 23:25:53
* REW Settings:
*  C-weighting compensation: Off
*  Target level: 75.0 dB
* Note: 
* Measurement: FIIL Key R
* Smoothing: 1/12 octave
* Frequency Step: 1/48 octave
* Start Frequency: 20.300 Hz
*
* Freq(Hz)	SPL(dB)	Phase(degrees)
20.299999	71.390	-86.8863
20.600000	71.438	-87.2965
20.900000	71.557	-88.1453
21.200001	71.696	-89.0175
21.400000	71.795	-89.5554
21.799999	72.000	-90.5082
22.000000	72.103	-90.9249
22.400000	72.300	-91.6712
22.700001	72.437	-92.1788
23.000000	72.563	-92.6605
23.299999	72.681	-93.1280
23.600000	72.792	-93.5904
24.000000	72.937	-94.2135
24.299999	73.047	-94.6977
24.700001	73.197	-95.3786
25.000000	73.311	-95.9192
25.400000	73.457	-96.6741
25.799999	73.592	-97.4499
26.200001	73.710	-98.2263
26.500000	73.789	-98.8032
26.900000	73.882	-99.5679
27.200001	73.947	-100.1434
27.600000	74.032	-100.9181
28.000000	74.119	-101.6948
28.500000	74.233	-102.6388
29.000000	74.353	-103.5146
29.500000	74.477	-104.3077
30.000000	74.600	-105.0365
30.400000	74.695	-105.5983
30.700001	74.764	-106.0209
31.100000	74.855	-106.6032
31.500000	74.948	-107.2212
32.000000	75.070	-108.0527
32.500000	75.197	-108.9281
33.000000	75.324	-109.7906
33.500000	75.446	-110.5852
34.000000	75.563	-111.2908
34.500000	75.672	-111.9325
35.000000	75.773	-112.5519
35.500000	75.866	-113.1794
36.000000	75.955	-113.8218
36.500000	76.047	-114.4758
37.000000	76.143	-115.1368
37.500000	76.242	-115.7956
38.200001	76.379	-116.6783
38.700001	76.475	-117.2606
39.500000	76.634	-118.1419
40.000000	76.738	-118.7039
40.599998	76.861	-119.4033
41.200001	76.983	-120.0945
41.799999	77.104	-120.7434
42.500000	77.248	-121.4633
43.099998	77.373	-122.0989
43.700001	77.494	-122.7763
44.400002	77.629	-123.5985
45.000000	77.740	-124.2992
45.500000	77.832	-124.8704
46.200001	77.961	-125.6580
46.799999	78.072	-126.3366
47.500000	78.203	-127.1476
48.200001	78.338	-127.9888
48.700001	78.436	-128.6101
49.400002	78.574	-129.5028
50.000000	78.687	-130.2767
50.799999	78.826	-131.3083
51.500000	78.938	-132.2199
52.200001	79.046	-133.1546
53.000000	79.165	-134.2454
53.799999	79.284	-135.3385
54.500000	79.394	-136.2938
55.200001	79.507	-137.2571
56.000000	79.637	-138.3752
57.000000	79.795	-139.8063
58.000000	79.947	-141.2781
59.000000	80.095	-142.7702
60.000000	80.239	-144.2755
60.799999	80.349	-145.5045
61.500000	80.442	-146.6058
62.200001	80.531	-147.7343
63.000000	80.631	-149.0586
64.000000	80.748	-150.7606
65.000000	80.854	-152.5019
66.000000	80.946	-154.2777
67.000000	81.025	-156.0878
68.000000	81.092	-157.9237
69.000000	81.147	-159.7769
70.000000	81.192	-161.6453
71.000000	81.229	-163.5190
72.000000	81.258	-165.3801
73.000000	81.281	-167.2223
74.000000	81.293	-169.0533
75.000000	81.294	-170.8742
76.199997	81.279	-173.0333
77.500000	81.247	-175.3297
78.800003	81.198	-177.5748
80.000000	81.137	-179.5997
81.199997	81.063	178.4128
82.500000	80.968	176.3036
83.800003	80.859	174.2534
85.000000	80.747	172.4120
86.199997	80.626	170.6194
87.500000	80.484	168.7461
88.500000	80.368	167.3594
90.000000	80.184	165.3607
91.199997	80.031	163.8308
92.500000	79.858	162.2478
93.800003	79.679	160.7394
95.000000	79.507	159.4084
96.199997	79.328	158.1311
97.500000	79.131	156.8045
98.800003	78.931	155.5383
100.000000	78.745	154.4241
101.500000	78.515	153.1059
103.000000	78.283	151.8685
104.400002	78.064	150.7827
106.000000	77.805	149.6205
107.500000	77.555	148.5999
109.000000	77.301	147.6347
110.599998	77.032	146.6599
112.000000	76.799	145.8534
113.800003	76.501	144.8875
115.000000	76.304	144.2905
117.199997	75.942	143.2890
118.000000	75.810	142.9534
120.599998	75.381	141.9634
122.000000	75.151	141.4904
124.099998	74.809	140.8540
125.000000	74.662	140.6057
126.500000	74.414	140.2183
128.000000	74.164	139.8555
131.500000	73.572	139.0967
132.000000	73.488	139.0019
134.000000	73.151	138.6644
136.000000	72.815	138.3945
138.000000	72.478	138.1866
140.000000	72.141	138.0323
143.000000	71.630	137.8892
145.000000	71.286	137.8516
147.500000	70.853	137.8755
150.000000	70.419	137.9928
152.500000	69.984	138.2090
155.000000	69.543	138.5193
157.500000	69.093	138.9211
160.000000	68.634	139.4212
162.500000	68.173	140.0291
165.000000	67.711	140.7509
167.500000	67.248	141.5812
170.000000	66.778	142.4994
172.500000	66.299	143.4897
175.000000	65.808	144.5473
177.500000	65.302	145.6780
180.000000	64.778	146.8868
182.500000	64.233	148.1920
185.000000	63.662	149.6201
187.500000	63.067	151.1847
190.000000	62.459	152.9073
192.500000	61.856	154.8363
195.000000	61.266	157.0311
197.500000	60.697	159.5337
200.000000	60.152	162.3642
203.000000	59.540	166.2074
206.000000	58.984	170.5399
209.000000	58.491	175.3175
212.000000	58.071	-179.5522
214.000000	57.841	-175.9816
218.000000	57.514	-168.5754
220.000000	57.418	-164.7956
224.000000	57.347	-157.3087
227.000000	57.397	-151.9471
230.000000	57.524	-146.9391
233.000000	57.714	-142.3598
236.000000	57.954	-138.2221
240.000000	58.327	-133.3504
243.000000	58.627	-130.1456
247.000000	59.032	-126.4423
250.000000	59.331	-124.0647
254.000000	59.719	-121.3529
258.000000	60.088	-119.0850
262.000000	60.432	-117.1857
265.000000	60.673	-115.9657
269.000000	60.976	-114.5792
272.000000	61.192	-113.6871
276.000000	61.465	-112.6459
280.000000	61.721	-111.7492
285.000000	62.016	-110.7884
290.000000	62.283	-109.9623
295.000000	62.523	-109.2818
300.000000	62.739	-108.7182
304.000000	62.897	-108.3198
307.000000	63.008	-108.0412
311.000000	63.148	-107.6803
315.000000	63.280	-107.3173
320.000000	63.437	-106.8651
325.000000	63.588	-106.4425
330.000000	63.735	-106.0655
335.000000	63.871	-105.7441
340.000000	63.998	-105.4489
345.000000	64.117	-105.1383
350.000000	64.223	-104.8622
355.000000	64.316	-104.6824
360.000000	64.403	-104.5907
365.000000	64.489	-104.5402
370.000000	64.571	-104.4978
375.000000	64.648	-104.4630
382.000000	64.746	-104.4654
387.000000	64.811	-104.5135
395.000000	64.915	-104.6647
400.000000	64.984	-104.8048
406.000000	65.066	-105.0172
412.000000	65.141	-105.2749
418.000000	65.205	-105.5885
425.000000	65.267	-106.0416
431.000000	65.309	-106.4925
437.000000	65.348	-106.9815
444.000000	65.397	-107.5710
450.000000	65.445	-108.0673
455.000000	65.485	-108.4749
462.000000	65.541	-109.0721
468.000000	65.585	-109.6352
475.000000	65.628	-110.3489
482.000000	65.662	-111.1104
487.000000	65.681	-111.6831
494.000000	65.699	-112.5303
500.000000	65.709	-113.2979
508.000000	65.720	-114.3584
515.000000	65.726	-115.2991
522.000000	65.728	-116.2648
530.000000	65.721	-117.4256
538.000000	65.705	-118.6412
545.000000	65.683	-119.7241
552.000000	65.658	-120.7935
560.000000	65.626	-121.9632
570.000000	65.586	-123.3060
580.000000	65.542	-124.5253
590.000000	65.490	-125.6757
600.000000	65.429	-126.7744
608.000000	65.373	-127.6182
615.000000	65.321	-128.3425
622.000000	65.268	-129.0653
630.000000	65.206	-129.9021
640.000000	65.127	-130.9783
650.000000	65.042	-132.0977
660.000000	64.950	-133.2699
670.000000	64.856	-134.4858
680.000000	64.760	-135.7268
690.000000	64.662	-136.9830
700.000000	64.562	-138.2462
710.000000	64.460	-139.4883
720.000000	64.357	-140.6718
730.000000	64.259	-141.7658
740.000000	64.168	-142.7621
750.000000	64.080	-143.6717
762.000000	63.974	-144.6597
775.000000	63.862	-145.6180
788.000000	63.760	-146.5012
800.000000	63.678	-147.2872
812.000000	63.600	-148.0791
825.000000	63.516	-148.9878
838.000000	63.435	-149.9798
850.000000	63.367	-150.9522
862.000000	63.308	-151.9427
875.000000	63.255	-153.0108
885.000000	63.223	-153.8186
900.000000	63.188	-155.0107
912.000000	63.167	-155.9662
925.000000	63.148	-157.0089
938.000000	63.136	-158.0583
950.000000	63.133	-159.0338
962.000000	63.137	-160.0081
975.000000	63.151	-161.0653
988.000000	63.174	-162.1558
1000.000000	63.203	-163.2128
1015.000000	63.245	-164.6100
1030.000000	63.293	-166.1148
1044.000000	63.343	-167.6371
1060.000000	63.402	-169.5125
1075.000000	63.456	-171.3715
1090.000000	63.514	-173.2826
1106.000000	63.584	-175.3607
1120.000000	63.652	-177.2373
1138.000000	63.738	-179.8016
1150.000000	63.789	178.3663
1172.000000	63.877	174.8127
1180.000000	63.909	173.4984
1206.000000	64.021	169.2953
1220.000000	64.087	167.0815
1241.000000	64.186	163.7714
1250.000000	64.229	162.3472
1265.000000	64.304	159.9787
1280.000000	64.383	157.6485
1315.000000	64.546	152.4677
1320.000000	64.562	151.7505
1340.000000	64.595	148.8910
1360.000000	64.576	145.9699
1380.000000	64.511	142.9052
1400.000000	64.422	139.6713
1430.000000	64.295	134.5876
1450.000000	64.234	131.1312
1475.000000	64.189	126.8013
1500.000000	64.168	122.5043
1525.000000	64.164	118.3068
1550.000000	64.177	114.2375
1575.000000	64.197	110.2195
1600.000000	64.218	106.1500
1625.000000	64.244	102.0150
1650.000000	64.279	97.8456
1675.000000	64.324	93.6435
1700.000000	64.381	89.3905
1725.000000	64.453	85.0797
1750.000000	64.543	80.7141
1775.000000	64.648	76.2895
1800.000000	64.771	71.8010
1825.000000	64.912	67.2443
1850.000000	65.072	62.6294
1875.000000	65.250	57.9728
1900.000000	65.450	53.2647
1925.000000	65.668	48.4518
1950.000000	65.900	43.4596
1975.000000	66.143	38.2176
2000.000000	66.395	32.6785
2030.000000	66.708	25.6042
2060.000000	67.026	18.0757
2090.000000	67.349	10.1370
2120.000000	67.670	1.8375
2140.000000	67.883	-3.8733
2180.000000	68.296	-15.7096
2200.000000	68.492	-21.8446
2240.000000	68.851	-34.5432
2270.000000	69.092	-44.3892
2300.000000	69.305	-54.4550
2330.000000	69.484	-64.6937
2360.000000	69.627	-75.0471
2400.000000	69.764	-88.9342
2430.000000	69.826	-99.3789
2470.000000	69.852	-113.3185
2500.000000	69.834	-123.7185
2540.000000	69.773	-137.4395
2580.000000	69.676	-151.1058
2620.000000	69.537	-164.9269
2650.000000	69.410	-175.4201
2690.000000	69.224	170.5399
2720.000000	69.079	160.0623
2760.000000	68.882	146.2226
2800.000000	68.684	132.5349
2850.000000	68.438	115.5895
2900.000000	68.197	98.7205
2950.000000	67.965	81.7551
3000.000000	67.741	64.5413
3040.000000	67.569	50.5770
3070.000000	67.448	40.0213
3110.000000	67.297	25.8853
3150.000000	67.160	11.6943
3200.000000	67.006	-6.2465
3250.000000	66.856	-24.6764
3300.000000	66.693	-43.6726
3350.000000	66.520	-62.9264
3400.000000	66.364	-82.0151
3450.000000	66.254	-100.8091
3500.000000	66.198	-119.5457
3550.000000	66.171	-138.5677
3600.000000	66.152	-158.0197
3650.000000	66.140	-177.7715
3700.000000	66.147	162.3621
3750.000000	66.176	142.3934
3820.000000	66.243	114.0027
3870.000000	66.299	93.3766
3950.000000	66.414	60.2122
4000.000000	66.498	39.5068
4060.000000	66.594	14.5566
4120.000000	66.677	-10.5637
4180.000000	66.752	-35.7319
4250.000000	66.829	-65.1967
4310.000000	66.875	-90.8247
4370.000000	66.901	-116.9744
4440.000000	66.912	-148.1271
4500.000000	66.904	-175.2594
4550.000000	66.881	161.9639
4620.000000	66.818	130.0309
4680.000000	66.725	102.6484
4750.000000	66.554	70.5345
4820.000000	66.308	38.1323
4870.000000	66.089	14.8245
4940.000000	65.723	-17.9666
5000.000000	65.364	-46.1272
5080.000000	64.838	-83.6515
5150.000000	64.343	-116.5411
5220.000000	63.818	-149.5518
5300.000000	63.195	172.7957
5380.000000	62.571	135.4938
5450.000000	62.026	103.1085
5520.000000	61.485	70.9764
5600.000000	60.889	34.7849
5700.000000	60.189	-9.5320
5800.000000	59.538	-52.8468
5900.000000	58.939	-94.6370
6000.000000	58.403	-133.4937
6080.000000	58.031	-161.7256
6150.000000	57.731	175.3403
6220.000000	57.436	153.5066
6300.000000	57.096	129.5483
6400.000000	56.650	101.4119
6500.000000	56.194	76.6409
6600.000000	55.788	56.3638
6700.000000	55.482	39.9370
6800.000000	55.295	25.8950
6900.000000	55.218	13.2542
7000.000000	55.228	1.5142
7100.000000	55.315	-9.7119
7200.000000	55.484	-20.7939
7300.000000	55.746	-31.8237
7400.000000	56.120	-42.4304
7500.000000	56.627	-52.2107
7620.000000	57.431	-62.9558
7750.000000	58.546	-74.1216
7880.000000	59.860	-85.9871
8000.000000	61.157	-98.7595
8120.000000	62.449	-113.9404
8250.000000	63.742	-133.0811
8380.000000	64.826	-154.4285
8500.000000	65.565	-175.3777
8620.000000	65.993	163.1506
8750.000000	66.063	140.0630
8850.000000	65.836	122.8989
9000.000000	65.086	98.7515
9120.000000	64.212	81.1821
9250.000000	63.094	64.0198
9380.000000	61.900	48.3584
9500.000000	60.805	34.3689
9620.000000	59.760	20.0356
9750.000000	58.709	3.8721
9880.000000	57.755	-12.6331
10000.000000	56.964	-27.7515
10150.000000	56.104	-45.9092
10300.000000	55.412	-62.8120
10440.000000	54.961	-77.4968
10600.000000	54.728	-93.8345
10750.000000	54.779	-109.8826
10900.000000	55.024	-127.3552
11060.000000	55.386	-147.6960
11200.000000	55.702	-166.6934
11380.000000	56.032	167.5737
11500.000000	56.174	149.5508
11720.000000	56.213	114.4377
11800.000000	56.146	101.1287
12060.000000	55.597	57.2478
12200.000000	55.100	33.9197
12410.000000	54.176	0.1936
12500.000000	53.750	-13.6509
12650.000000	53.033	-35.8516
12800.000000	52.306	-57.0312
13150.000000	50.417	-102.9392
13200.000000	50.116	-109.1665
13400.000000	48.835	-133.7625
13600.000000	47.484	-158.3955
13800.000000	46.142	177.0254
14000.000000	44.898	153.0427
14300.000000	43.346	118.3982
14500.000000	42.546	95.8899
14750.000000	41.786	68.0872
15000.000000	41.227	40.7822
15250.000000	40.791	14.6768
15500.000000	40.476	-10.1172
15750.000000	40.400	-34.1709
16000.000000	40.790	-58.4822
16250.000000	41.806	-84.4458
16500.000000	43.247	-113.6665
16750.000000	44.713	-147.9263
17000.000000	45.905	171.8594
17250.000000	46.617	126.1494
17500.000000	46.722	76.0188
17750.000000	46.211	20.2136
18000.000000	45.185	-52.8186
18250.000000	43.779	178.0066
18500.000000	42.138	-100.2441
18750.000000	40.426	28.1113
19000.000000	38.848	-3.6406
19250.000000	37.646	-15.7578
19500.000000	36.951	6.5781
19750.000000	36.631	-108.5059
