* Measurement data measured by REW V5.31.3
* Source: Microphone (4- USB Audio Device), MICROPHONE (Master Volume), R, volume: 0.250
* Format: 256k Log Swept Sine, 1 sweep at -12.0 dBFS with no timing reference
* Dated: 30-Oct-2024 20:35:22
* REW Settings:
*  C-weighting compensation: Off
*  Target level: 75.0 dB
* Note: 
* Measurement: FIIL Key Pro Open L
* Smoothing: 1/12 octave
* Frequency Step: 1/48 octave
* Start Frequency: 20.300 Hz
*
* Freq(Hz)	SPL(dB)	Phase(degrees)
20.299999	41.297	74.1110
20.600000	41.411	73.5050
20.900000	41.544	72.7299
21.200001	41.670	71.9337
21.400000	41.746	71.4466
21.799999	41.887	70.6474
22.000000	41.959	70.3237
22.400000	42.117	69.6925
22.700001	42.245	69.0848
23.000000	42.367	68.2603
23.299999	42.463	67.2100
23.600000	42.522	66.0078
24.000000	42.542	64.3977
24.299999	42.529	63.3524
24.700001	42.521	62.3098
25.000000	42.550	61.7633
25.400000	42.648	61.1722
25.799999	42.796	60.5183
26.200001	42.953	59.6780
26.500000	43.055	58.9385
26.900000	43.161	57.8876
27.200001	43.226	57.1045
27.600000	43.311	56.1073
28.000000	43.421	55.1538
28.500000	43.613	53.9440
29.000000	43.850	52.6138
29.500000	44.076	51.1385
30.000000	44.226	49.6297
30.400000	44.270	48.5330
30.700001	44.264	47.8366
31.100000	44.228	47.0933
31.500000	44.201	46.4953
32.000000	44.224	45.7232
32.500000	44.318	44.6907
33.000000	44.438	43.3805
33.500000	44.533	42.0046
34.000000	44.579	40.8090
34.500000	44.591	39.8931
35.000000	44.604	39.1681
35.500000	44.640	38.4628
36.000000	44.699	37.6825
36.500000	44.757	36.8841
37.000000	44.790	36.2044
37.500000	44.794	35.7148
38.200001	44.795	35.1436
38.700001	44.836	34.5116
39.500000	44.996	32.8593
40.000000	45.122	31.7353
40.599998	45.255	30.8353
41.200001	45.356	30.5911
41.799999	45.433	30.5857
42.500000	45.487	30.0325
43.099998	45.485	28.8359
43.700001	45.432	27.3019
44.400002	45.315	25.7061
45.000000	45.205	24.6881
45.500000	45.153	23.8635
46.200001	45.202	22.2694
46.799999	45.351	20.7596
47.500000	45.630	20.1618
48.200001	46.025	21.3630
48.700001	46.315	22.4674
49.400002	46.526	22.9074
50.000000	46.398	21.9566
50.799999	45.906	19.5302
51.500000	45.512	17.0354
52.200001	45.361	14.7966
53.000000	45.393	13.3017
53.799999	45.472	12.9257
54.500000	45.501	12.7945
55.200001	45.475	12.3473
56.000000	45.409	11.4072
57.000000	45.335	9.9173
58.000000	45.313	8.4142
59.000000	45.337	6.9364
60.000000	45.322	5.7574
60.799999	45.281	5.4000
61.500000	45.277	5.3510
62.200001	45.309	5.0480
63.000000	45.330	4.1255
64.000000	45.267	2.7718
65.000000	45.193	1.8981
66.000000	45.169	1.2060
67.000000	45.161	0.3506
68.000000	45.159	-0.5419
69.000000	45.171	-1.1589
70.000000	45.193	-1.4558
71.000000	45.203	-1.7192
72.000000	45.189	-2.1756
73.000000	45.150	-2.7513
74.000000	45.097	-3.2531
75.000000	45.054	-3.7128
76.199997	45.026	-4.3306
77.500000	45.013	-4.9650
78.800003	45.006	-5.4768
80.000000	45.008	-6.0463
81.199997	45.004	-6.6420
82.500000	45.017	-7.0569
83.800003	45.062	-7.4778
85.000000	45.107	-7.9379
86.199997	45.151	-8.3073
87.500000	45.188	-8.6880
88.500000	45.195	-9.0526
90.000000	45.178	-9.5996
91.199997	45.158	-9.9129
92.500000	45.138	-10.0933
93.800003	45.126	-10.2414
95.000000	45.116	-10.4106
96.199997	45.118	-10.5480
97.500000	45.158	-10.7251
98.800003	45.240	-11.0788
100.000000	45.330	-11.5518
101.500000	45.429	-12.1235
103.000000	45.506	-12.6130
104.400002	45.556	-13.0625
106.000000	45.591	-13.4827
107.500000	45.616	-13.7691
109.000000	45.648	-13.9695
110.599998	45.693	-14.2039
112.000000	45.735	-14.5671
113.800003	45.809	-15.1080
115.000000	45.871	-15.4361
117.199997	45.989	-16.2041
118.000000	46.034	-16.5742
120.599998	46.168	-17.6744
122.000000	46.226	-18.0802
124.099998	46.310	-18.6488
125.000000	46.349	-18.8908
126.500000	46.414	-19.2660
128.000000	46.468	-19.5924
131.500000	46.646	-20.1998
132.000000	46.683	-20.3066
134.000000	46.833	-20.9471
136.000000	46.957	-21.8630
138.000000	47.047	-22.7980
140.000000	47.141	-23.7058
143.000000	47.337	-24.8082
145.000000	47.458	-25.3656
147.500000	47.582	-26.0105
150.000000	47.699	-26.6754
152.500000	47.813	-27.5391
155.000000	47.927	-28.5400
157.500000	48.047	-29.6254
160.000000	48.166	-30.6936
162.500000	48.272	-31.7191
165.000000	48.379	-32.7425
167.500000	48.502	-33.7253
170.000000	48.641	-34.6859
172.500000	48.780	-35.6733
175.000000	48.919	-36.6182
177.500000	49.055	-37.5387
180.000000	49.179	-38.4887
182.500000	49.289	-39.4918
185.000000	49.377	-40.5056
187.500000	49.443	-41.4563
190.000000	49.504	-42.4043
192.500000	49.568	-43.3756
195.000000	49.640	-44.3543
197.500000	49.724	-45.3093
200.000000	49.820	-46.1891
203.000000	49.951	-47.1061
206.000000	50.094	-47.8932
209.000000	50.237	-48.5389
212.000000	50.378	-49.1242
214.000000	50.479	-49.5231
218.000000	50.693	-50.3422
220.000000	50.791	-50.7561
224.000000	50.955	-51.5415
227.000000	51.084	-52.0208
230.000000	51.225	-52.4844
233.000000	51.361	-52.9799
236.000000	51.492	-53.4958
240.000000	51.680	-54.1226
243.000000	51.826	-54.5583
247.000000	52.004	-55.1800
250.000000	52.122	-55.7046
254.000000	52.272	-56.4692
258.000000	52.428	-57.2237
262.000000	52.589	-57.8633
265.000000	52.704	-58.2880
269.000000	52.859	-58.9176
272.000000	52.987	-59.4366
276.000000	53.171	-60.0877
280.000000	53.360	-60.6744
285.000000	53.596	-61.3893
290.000000	53.826	-62.1109
295.000000	54.058	-62.8553
300.000000	54.285	-63.6618
304.000000	54.456	-64.3157
307.000000	54.578	-64.7854
311.000000	54.738	-65.3459
315.000000	54.895	-65.8328
320.000000	55.087	-66.4121
325.000000	55.276	-66.9975
330.000000	55.468	-67.5992
335.000000	55.681	-68.1919
340.000000	55.917	-68.7629
345.000000	56.162	-69.3146
350.000000	56.406	-69.8362
355.000000	56.647	-70.3481
360.000000	56.881	-70.9070
365.000000	57.112	-71.5448
370.000000	57.343	-72.2560
375.000000	57.575	-73.0093
382.000000	57.907	-74.1019
387.000000	58.145	-74.9331
395.000000	58.515	-76.4681
400.000000	58.733	-77.5544
406.000000	58.982	-78.9265
412.000000	59.215	-80.3237
418.000000	59.432	-81.7417
425.000000	59.673	-83.4066
431.000000	59.877	-84.7696
437.000000	60.089	-86.0113
444.000000	60.355	-87.2946
450.000000	60.598	-88.2995
455.000000	60.809	-89.1151
462.000000	61.116	-90.2765
468.000000	61.384	-91.3243
475.000000	61.699	-92.6507
482.000000	62.012	-94.1266
487.000000	62.231	-95.2922
494.000000	62.525	-97.1007
500.000000	62.761	-98.8374
508.000000	63.060	-101.4660
515.000000	63.316	-104.0621
522.000000	63.572	-106.8749
530.000000	63.867	-110.2256
538.000000	64.158	-113.6099
545.000000	64.408	-116.5883
552.000000	64.656	-119.6060
560.000000	64.930	-123.1483
570.000000	65.259	-127.6898
580.000000	65.579	-132.2353
590.000000	65.880	-136.7665
600.000000	66.161	-141.3862
608.000000	66.381	-145.1651
615.000000	66.569	-148.5050
622.000000	66.747	-151.8532
630.000000	66.932	-155.6544
640.000000	67.144	-160.3799
650.000000	67.348	-165.1972
660.000000	67.544	-170.1181
670.000000	67.721	-175.0640
680.000000	67.874	-179.9643
690.000000	68.010	175.2235
700.000000	68.137	170.4928
710.000000	68.256	165.8249
720.000000	68.366	161.2424
730.000000	68.465	156.7112
740.000000	68.554	152.1622
750.000000	68.642	147.5781
762.000000	68.743	142.0102
775.000000	68.838	135.9721
788.000000	68.900	130.0133
800.000000	68.936	124.6168
812.000000	68.954	119.3499
825.000000	68.957	113.7509
838.000000	68.950	108.2217
850.000000	68.945	103.2015
862.000000	68.943	98.2684
875.000000	68.945	93.0002
885.000000	68.947	89.0137
900.000000	68.942	83.1768
912.000000	68.938	78.6142
925.000000	68.939	73.7300
938.000000	68.945	68.9036
950.000000	68.956	64.5157
962.000000	68.972	60.1724
975.000000	68.998	55.5139
988.000000	69.030	50.9636
1000.000000	69.061	46.8954
1015.000000	69.102	41.9804
1030.000000	69.151	37.2617
1044.000000	69.203	33.0389
1060.000000	69.260	28.3473
1075.000000	69.316	24.0277
1090.000000	69.377	19.8038
1106.000000	69.447	15.3529
1120.000000	69.510	11.4166
1138.000000	69.594	6.2452
1150.000000	69.654	2.7369
1172.000000	69.772	-3.7822
1180.000000	69.816	-6.1644
1206.000000	69.971	-13.8337
1220.000000	70.064	-17.8745
1241.000000	70.211	-23.8461
1250.000000	70.273	-26.3947
1265.000000	70.376	-30.6577
1280.000000	70.476	-34.9596
1315.000000	70.676	-45.1294
1320.000000	70.697	-46.5920
1340.000000	70.755	-52.4539
1360.000000	70.767	-58.3181
1380.000000	70.744	-64.1641
1400.000000	70.709	-69.9274
1430.000000	70.693	-78.2543
1450.000000	70.725	-83.6055
1475.000000	70.812	-90.2678
1500.000000	70.928	-97.0731
1525.000000	71.055	-103.9581
1550.000000	71.185	-110.8527
1575.000000	71.324	-117.7199
1600.000000	71.478	-124.4641
1625.000000	71.642	-131.0624
1650.000000	71.809	-137.5765
1675.000000	71.983	-144.0208
1700.000000	72.168	-150.4316
1725.000000	72.353	-156.9624
1750.000000	72.527	-163.7262
1775.000000	72.698	-170.6993
1800.000000	72.876	-177.7196
1825.000000	73.061	175.3459
1850.000000	73.245	168.4972
1875.000000	73.420	161.6708
1900.000000	73.581	154.8300
1925.000000	73.725	148.1118
1950.000000	73.855	141.8715
1975.000000	73.994	136.5037
2000.000000	74.155	132.1693
2030.000000	74.353	128.0866
2060.000000	74.537	124.7327
2090.000000	74.708	121.7517
2120.000000	74.872	119.0143
2140.000000	74.977	117.3151
2180.000000	75.175	114.2502
2200.000000	75.268	112.9152
2240.000000	75.447	110.6897
2270.000000	75.575	109.4230
2300.000000	75.696	108.4949
2330.000000	75.814	107.8459
2360.000000	75.925	107.3792
2400.000000	76.063	106.7797
2430.000000	76.161	106.1818
2470.000000	76.289	105.0967
2500.000000	76.381	104.0837
2540.000000	76.495	102.5333
2580.000000	76.597	100.8683
2620.000000	76.694	99.2091
2650.000000	76.763	98.0003
2690.000000	76.847	96.4962
2720.000000	76.907	95.5122
2760.000000	76.985	94.4142
2800.000000	77.055	93.4535
2850.000000	77.130	92.2447
2900.000000	77.195	91.0654
2950.000000	77.254	90.0884
3000.000000	77.303	89.3441
3040.000000	77.331	88.9370
3070.000000	77.349	88.7898
3110.000000	77.374	88.8311
3150.000000	77.397	89.0685
3200.000000	77.417	89.4758
3250.000000	77.426	89.9453
3300.000000	77.427	90.4282
3350.000000	77.413	90.9069
3400.000000	77.387	91.5393
3450.000000	77.357	92.5671
3500.000000	77.325	94.0209
3550.000000	77.284	95.6877
3600.000000	77.235	97.4047
3650.000000	77.183	99.1614
3700.000000	77.126	101.0369
3750.000000	77.068	103.2743
3820.000000	77.004	107.5292
3870.000000	76.968	111.4666
3950.000000	76.910	119.0275
4000.000000	76.862	124.3140
4060.000000	76.786	131.0982
4120.000000	76.697	138.3464
4180.000000	76.600	145.9331
4250.000000	76.465	154.9625
4310.000000	76.336	162.8533
4370.000000	76.213	171.0323
4440.000000	76.093	-178.9576
4500.000000	76.015	-169.9669
4550.000000	75.967	-162.1644
4620.000000	75.932	-150.6562
4680.000000	75.937	-140.2719
4750.000000	75.984	-128.1627
4820.000000	76.065	-117.7592
4870.000000	76.117	-112.4613
4940.000000	76.180	-108.2100
5000.000000	76.259	-106.5641
5080.000000	76.424	-105.7122
5150.000000	76.613	-105.5511
5220.000000	76.838	-105.6075
5300.000000	77.129	-105.7401
5380.000000	77.437	-105.9423
5450.000000	77.710	-106.2800
5520.000000	77.974	-106.9933
5600.000000	78.242	-108.5625
5700.000000	78.492	-111.7888
5800.000000	78.623	-116.2012
5900.000000	78.610	-121.5176
6000.000000	78.455	-127.0043
6080.000000	78.247	-130.8586
6150.000000	78.012	-133.6805
6220.000000	77.737	-136.0486
6300.000000	77.389	-138.3315
6400.000000	76.927	-140.7662
6500.000000	76.466	-143.0150
6600.000000	76.027	-145.5451
6700.000000	75.620	-148.8318
6800.000000	75.254	-152.8422
6900.000000	74.945	-156.8842
7000.000000	74.705	-160.2917
7100.000000	74.533	-163.0219
7200.000000	74.425	-165.3439
7300.000000	74.382	-167.3579
7400.000000	74.408	-169.1019
7500.000000	74.503	-170.7424
7620.000000	74.702	-172.5660
7750.000000	74.986	-173.9573
7880.000000	75.271	-174.6052
8000.000000	75.489	-174.9200
8120.000000	75.654	-175.4265
8250.000000	75.780	-176.7747
8380.000000	75.859	-179.3923
8500.000000	75.891	177.0569
8620.000000	75.852	172.5276
8750.000000	75.658	166.8481
8850.000000	75.357	162.4193
9000.000000	74.633	156.8438
9120.000000	73.841	154.0042
9250.000000	72.829	152.8038
9380.000000	71.726	153.4686
9500.000000	70.684	155.5067
9620.000000	69.664	158.6449
9750.000000	68.614	162.9172
9880.000000	67.629	167.6954
10000.000000	66.779	172.5025
10150.000000	65.802	179.3147
10300.000000	64.924	-172.8604
10440.000000	64.185	-164.9556
10600.000000	63.423	-155.7421
10750.000000	62.793	-146.9438
10900.000000	62.250	-137.8369
11060.000000	61.765	-128.0593
11200.000000	61.413	-119.8140
11380.000000	61.045	-110.1642
11500.000000	60.849	-104.5975
11720.000000	60.601	-95.5106
11800.000000	60.551	-92.0323
12060.000000	60.534	-77.3199
12200.000000	60.611	-66.3474
12410.000000	60.829	-46.5455
12500.000000	60.954	-37.5233
12650.000000	61.202	-22.5507
12800.000000	61.495	-7.9470
13150.000000	62.292	25.2664
13200.000000	62.412	29.9585
13400.000000	62.910	48.3661
13600.000000	63.441	65.5212
13800.000000	63.996	80.6205
14000.000000	64.535	93.3464
14300.000000	65.187	107.2888
14500.000000	65.363	112.6086
14750.000000	65.060	115.5143
15000.000000	64.097	116.9778
15250.000000	62.605	120.2636
15500.000000	60.789	127.5383
15750.000000	58.875	139.4924
16000.000000	57.071	154.5509
16250.000000	55.556	170.3093
16500.000000	54.435	-174.5562
16750.000000	53.691	-160.2320
17000.000000	53.246	-146.4155
17250.000000	53.037	-132.6500
17500.000000	53.030	-118.2467
17750.000000	53.212	-102.8046
18000.000000	53.568	-86.9412
18250.000000	54.061	-71.4843
18500.000000	54.633	-56.2942
18750.000000	55.231	-40.2075
19000.000000	55.816	-20.6366
19250.000000	56.335	8.0825
19500.000000	56.717	53.5443
19750.000000	56.916	102.0110
20000.000000	56.975	126.2355
