* Measurement data measured by REW V5.31.3
* Source: Microphone (4- USB Audio Device), MICROPHONE (Master Volume), R, volume: 0.250
* Format: 256k Log Swept Sine, 1 sweep at -12.0 dBFS with no timing reference
* Dated: 01-Sep-2024 16:22:34
* REW Settings:
*  C-weighting compensation: Off
*  Target level: 75.0 dB
* Note: 
* Measurement: FIIL GS Treble L
* Smoothing: 1/12 octave
* Frequency Step: 1/48 octave
* Start Frequency: 20.300 Hz
*
* Freq(Hz)	SPL(dB)	Phase(degrees)
20.299999	54.739	-177.6172
20.600000	54.990	-178.5299
20.900000	55.286	-179.9110
21.200001	55.565	178.2984
21.400000	55.726	176.9333
21.799999	55.981	174.0645
22.000000	56.083	172.7172
22.400000	56.275	170.5775
22.700001	56.449	169.6650
23.000000	56.680	169.3760
23.299999	56.980	169.5692
23.600000	57.339	170.0024
24.000000	57.851	170.5360
24.299999	58.212	170.7218
24.700001	58.605	170.6650
25.000000	58.822	170.5076
25.400000	59.027	170.3730
25.799999	59.200	170.4921
26.200001	59.418	170.8249
26.500000	59.642	171.0540
26.900000	60.013	171.0663
27.200001	60.318	170.7468
27.600000	60.706	169.8967
28.000000	61.028	168.7361
28.500000	61.321	167.1914
29.000000	61.532	165.7766
29.500000	61.730	164.4666
30.000000	61.963	163.1165
30.400000	62.184	161.9879
30.700001	62.368	161.1609
31.100000	62.632	160.1716
31.500000	62.910	159.3825
32.000000	63.262	158.6740
32.500000	63.596	158.1274
33.000000	63.892	157.5432
33.500000	64.145	156.7966
34.000000	64.381	155.8611
34.500000	64.637	154.7577
35.000000	64.933	153.5221
35.500000	65.249	152.2328
36.000000	65.540	151.0277
36.500000	65.774	150.0336
37.000000	65.954	149.2430
37.500000	66.108	148.4613
38.200001	66.345	146.8889
38.700001	66.547	145.3486
39.500000	66.913	142.9561
40.000000	67.161	142.0696
40.599998	67.478	141.7100
41.200001	67.796	141.5544
41.799999	68.071	140.9468
42.500000	68.298	139.5147
43.099998	68.444	138.1288
43.700001	68.595	137.0537
44.400002	68.804	136.3134
45.000000	68.998	135.8304
45.500000	69.165	135.2468
46.200001	69.405	133.9766
46.799999	69.635	132.8228
47.500000	69.996	132.0521
48.200001	70.457	131.7149
48.700001	70.758	131.2559
49.400002	70.993	130.0691
50.000000	71.001	128.8296
50.799999	70.923	127.2656
51.500000	70.947	125.9002
52.200001	71.079	124.5720
53.000000	71.294	123.4131
53.799999	71.515	122.5759
54.500000	71.678	121.8982
55.200001	71.825	121.2557
56.000000	72.013	120.5391
57.000000	72.280	119.4992
58.000000	72.550	118.3612
59.000000	72.841	117.1888
60.000000	73.133	115.8930
60.799999	73.331	114.8478
61.500000	73.479	113.9902
62.200001	73.614	113.1765
63.000000	73.767	112.2892
64.000000	73.969	111.2813
65.000000	74.189	110.3691
66.000000	74.426	109.4322
67.000000	74.682	108.3955
68.000000	74.956	107.2913
69.000000	75.231	106.1896
70.000000	75.494	105.0825
71.000000	75.742	103.8717
72.000000	75.979	102.5177
73.000000	76.207	101.0880
74.000000	76.424	99.6678
75.000000	76.637	98.2839
76.199997	76.897	96.6577
77.500000	77.182	94.9560
78.800003	77.454	93.2377
80.000000	77.684	91.5446
81.199997	77.903	89.7681
82.500000	78.137	87.8062
83.800003	78.364	85.8522
85.000000	78.559	84.0819
86.199997	78.736	82.3099
87.500000	78.910	80.3136
88.500000	79.034	78.7151
90.000000	79.201	76.2922
91.199997	79.318	74.4393
92.500000	79.435	72.5789
93.800003	79.552	70.8157
95.000000	79.662	69.2025
96.199997	79.773	67.5750
97.500000	79.893	65.8131
98.800003	80.011	64.0583
100.000000	80.117	62.4201
101.500000	80.244	60.3302
103.000000	80.362	58.1672
104.400002	80.455	56.0349
106.000000	80.527	53.5260
107.500000	80.542	51.2213
109.000000	80.501	49.0515
110.599998	80.419	47.0770
112.000000	80.344	45.7376
113.800003	80.285	44.3557
115.000000	80.279	43.4829
117.199997	80.310	41.7747
118.000000	80.328	41.1013
120.599998	80.378	38.8372
122.000000	80.387	37.6832
124.099998	80.370	36.1073
125.000000	80.356	35.4782
126.500000	80.331	34.4820
128.000000	80.307	33.5333
131.500000	80.262	31.3547
132.000000	80.258	31.0445
134.000000	80.243	29.8120
136.000000	80.226	28.6118
138.000000	80.207	27.5035
140.000000	80.193	26.4816
143.000000	80.174	24.9666
145.000000	80.153	23.9924
147.500000	80.123	22.8163
150.000000	80.091	21.5901
152.500000	80.061	20.3234
155.000000	80.025	19.0529
157.500000	79.972	17.7582
160.000000	79.905	16.4418
162.500000	79.819	15.2484
165.000000	79.708	14.3730
167.500000	79.592	13.8837
170.000000	79.502	13.6552
172.500000	79.445	13.5479
175.000000	79.407	13.4312
177.500000	79.386	13.2091
180.000000	79.380	12.8998
182.500000	79.381	12.5865
185.000000	79.387	12.2867
187.500000	79.399	11.9779
190.000000	79.416	11.6604
192.500000	79.437	11.3157
195.000000	79.457	10.9180
197.500000	79.479	10.4795
200.000000	79.509	10.0231
203.000000	79.556	9.5016
206.000000	79.608	9.0150
209.000000	79.664	8.5259
212.000000	79.720	8.0268
214.000000	79.758	7.6899
218.000000	79.830	6.9911
220.000000	79.864	6.6274
224.000000	79.938	5.8947
227.000000	79.998	5.3606
230.000000	80.058	4.8333
233.000000	80.117	4.2855
236.000000	80.170	3.7057
240.000000	80.231	2.9031
243.000000	80.272	2.3043
247.000000	80.320	1.5623
250.000000	80.351	1.0299
254.000000	80.391	0.2889
258.000000	80.434	-0.4740
262.000000	80.482	-1.1979
265.000000	80.518	-1.7013
269.000000	80.561	-2.3514
272.000000	80.587	-2.8406
276.000000	80.615	-3.4986
280.000000	80.636	-4.1543
285.000000	80.657	-4.9457
290.000000	80.677	-5.6705
295.000000	80.694	-6.3228
300.000000	80.706	-6.9282
304.000000	80.713	-7.4119
307.000000	80.719	-7.7808
311.000000	80.725	-8.2887
315.000000	80.726	-8.8258
320.000000	80.723	-9.5201
325.000000	80.721	-10.2094
330.000000	80.717	-10.8683
335.000000	80.713	-11.4570
340.000000	80.714	-11.9413
345.000000	80.721	-12.3682
350.000000	80.734	-12.8054
355.000000	80.751	-13.2568
360.000000	80.762	-13.6665
365.000000	80.767	-14.0504
370.000000	80.773	-14.4384
375.000000	80.780	-14.8318
382.000000	80.791	-15.4121
387.000000	80.800	-15.8463
395.000000	80.820	-16.5681
400.000000	80.833	-17.0541
406.000000	80.846	-17.6625
412.000000	80.857	-18.2709
418.000000	80.864	-18.8591
425.000000	80.871	-19.4987
431.000000	80.880	-20.0234
437.000000	80.896	-20.4941
444.000000	80.921	-20.9335
450.000000	80.944	-21.2119
455.000000	80.959	-21.3938
462.000000	80.977	-21.6148
468.000000	80.993	-21.7922
475.000000	81.022	-21.9743
482.000000	81.064	-22.0884
487.000000	81.104	-22.1379
494.000000	81.169	-22.2319
500.000000	81.224	-22.3845
508.000000	81.288	-22.6835
515.000000	81.338	-22.9958
522.000000	81.383	-23.3231
530.000000	81.425	-23.6721
538.000000	81.460	-23.9908
545.000000	81.486	-24.2659
552.000000	81.510	-24.5349
560.000000	81.541	-24.7992
570.000000	81.586	-25.0416
580.000000	81.638	-25.2068
590.000000	81.704	-25.3431
600.000000	81.780	-25.5193
608.000000	81.839	-25.7245
615.000000	81.882	-25.9546
622.000000	81.920	-26.2278
630.000000	81.960	-26.5699
640.000000	82.013	-27.0109
650.000000	82.074	-27.4718
660.000000	82.140	-27.9636
670.000000	82.206	-28.4435
680.000000	82.266	-28.8301
690.000000	82.321	-29.1100
700.000000	82.373	-29.3359
710.000000	82.424	-29.5090
720.000000	82.474	-29.5743
730.000000	82.528	-29.5029
740.000000	82.591	-29.3261
750.000000	82.657	-29.0872
762.000000	82.729	-28.7949
775.000000	82.798	-28.5200
788.000000	82.867	-28.2690
800.000000	82.928	-28.0619
812.000000	82.985	-27.8880
825.000000	83.048	-27.6998
838.000000	83.112	-27.4780
850.000000	83.168	-27.2533
862.000000	83.218	-27.0232
875.000000	83.269	-26.7754
885.000000	83.309	-26.5743
900.000000	83.370	-26.2397
912.000000	83.419	-25.9517
925.000000	83.465	-25.6034
938.000000	83.503	-25.2091
950.000000	83.537	-24.8143
962.000000	83.576	-24.3882
975.000000	83.621	-23.8916
988.000000	83.665	-23.3856
1000.000000	83.703	-22.9478
1015.000000	83.752	-22.4565
1030.000000	83.800	-21.9808
1044.000000	83.847	-21.5193
1060.000000	83.906	-21.0200
1075.000000	83.965	-20.6392
1090.000000	84.023	-20.3485
1106.000000	84.080	-20.1321
1120.000000	84.134	-19.9816
1138.000000	84.213	-19.7812
1150.000000	84.270	-19.6322
1172.000000	84.370	-19.3090
1180.000000	84.406	-19.1611
1206.000000	84.521	-18.4734
1220.000000	84.586	-17.9677
1241.000000	84.690	-17.0770
1250.000000	84.736	-16.6622
1265.000000	84.811	-15.9611
1280.000000	84.882	-15.2862
1315.000000	85.030	-13.8854
1320.000000	85.051	-13.6915
1340.000000	85.141	-12.8843
1360.000000	85.244	-11.9880
1380.000000	85.356	-10.9808
1400.000000	85.468	-9.8825
1430.000000	85.628	-8.1414
1450.000000	85.735	-6.9493
1475.000000	85.874	-5.4254
1500.000000	86.016	-3.8939
1525.000000	86.168	-2.4631
1550.000000	86.338	-1.2587
1575.000000	86.515	-0.3154
1600.000000	86.689	0.5447
1625.000000	86.872	1.5404
1650.000000	87.069	2.6984
1675.000000	87.272	3.9341
1700.000000	87.473	5.1418
1725.000000	87.674	6.2450
1750.000000	87.872	7.2563
1775.000000	88.071	8.2329
1800.000000	88.280	9.2062
1825.000000	88.499	10.2015
1850.000000	88.725	11.2330
1875.000000	88.955	12.2852
1900.000000	89.184	13.3488
1925.000000	89.410	14.4413
1950.000000	89.634	15.5887
1975.000000	89.861	16.7914
2000.000000	90.092	18.0159
2030.000000	90.369	19.4380
2060.000000	90.647	20.7037
2090.000000	90.924	21.6998
2120.000000	91.194	22.3679
2140.000000	91.370	22.6390
2180.000000	91.712	22.8169
2200.000000	91.874	22.7356
2240.000000	92.166	22.2948
2270.000000	92.357	21.8947
2300.000000	92.536	21.6805
2330.000000	92.701	21.8337
2360.000000	92.848	22.4199
2400.000000	93.014	23.7442
2430.000000	93.114	24.9941
2470.000000	93.217	26.8893
2500.000000	93.278	28.4080
2540.000000	93.335	30.4957
2580.000000	93.372	32.6726
2620.000000	93.403	34.9682
2650.000000	93.428	36.7286
2690.000000	93.467	38.9594
2720.000000	93.495	40.4555
2760.000000	93.519	42.1002
2800.000000	93.500	43.2628
2850.000000	93.375	44.1373
2900.000000	93.086	44.6343
2950.000000	92.560	45.2921
3000.000000	91.756	47.1490
3040.000000	90.956	50.3499
3070.000000	90.333	54.0873
3110.000000	89.580	60.8238
3150.000000	89.018	68.8842
3200.000000	88.617	79.1859
3250.000000	88.438	88.5519
3300.000000	88.345	96.8156
3350.000000	88.262	104.3229
3400.000000	88.174	111.5744
3450.000000	88.086	118.9428
3500.000000	87.995	126.5102
3550.000000	87.908	134.2693
3600.000000	87.839	142.2908
3650.000000	87.798	150.5679
3700.000000	87.780	158.9686
3750.000000	87.783	167.3959
3820.000000	87.823	179.1332
3870.000000	87.867	-172.6213
3950.000000	87.937	-159.6141
4000.000000	87.989	-151.4596
4060.000000	88.061	-141.5389
4120.000000	88.135	-131.5380
4180.000000	88.212	-121.5769
4250.000000	88.309	-110.1049
4310.000000	88.376	-100.5584
4370.000000	88.377	-91.3652
4440.000000	88.265	-80.8124
4500.000000	88.095	-71.4467
4550.000000	87.941	-63.3964
4620.000000	87.755	-52.6665
4680.000000	87.638	-44.7309
4750.000000	87.599	-36.8664
4820.000000	87.730	-30.1388
4870.000000	87.927	-26.0882
4940.000000	88.305	-21.6562
5000.000000	88.680	-18.9953
5080.000000	89.176	-16.8118
5150.000000	89.545	-15.8819
5220.000000	89.822	-15.4727
5300.000000	90.047	-15.0893
5380.000000	90.202	-14.4804
5450.000000	90.287	-13.8035
5520.000000	90.316	-13.0950
5600.000000	90.268	-12.1708
5700.000000	90.120	-10.5671
5800.000000	89.930	-8.5759
5900.000000	89.703	-6.4637
6000.000000	89.440	-4.1701
6080.000000	89.222	-2.1202
6150.000000	89.031	-0.2564
6220.000000	88.838	1.4991
6300.000000	88.615	3.1574
6400.000000	88.325	4.5279
6500.000000	87.999	5.2209
6600.000000	87.619	5.6903
6700.000000	87.174	6.2748
6800.000000	86.648	7.2081
6900.000000	86.032	9.0957
7000.000000	85.352	12.7541
7100.000000	84.680	18.6973
7200.000000	84.126	27.0471
7300.000000	83.814	37.3854
7400.000000	83.822	48.5278
7500.000000	84.170	59.0511
7620.000000	84.978	69.7997
7750.000000	86.231	78.8646
7880.000000	87.743	84.3118
8000.000000	89.160	84.9145
8120.000000	90.394	80.8198
8250.000000	91.337	71.6058
8380.000000	91.768	59.0164
8500.000000	91.740	46.6431
8620.000000	91.390	35.5881
8750.000000	90.750	26.1688
8850.000000	90.136	20.6646
9000.000000	89.132	14.5447
9120.000000	88.362	10.9501
9250.000000	87.648	7.9442
9380.000000	87.060	5.4584
9500.000000	86.573	3.3474
9620.000000	86.091	1.2257
9750.000000	85.546	-1.3890
9880.000000	84.981	-4.5426
10000.000000	84.481	-7.7772
10150.000000	83.958	-11.9297
10300.000000	83.592	-16.3877
10440.000000	83.391	-21.1172
10600.000000	83.253	-27.3000
10750.000000	83.114	-33.8156
10900.000000	82.891	-40.5094
11060.000000	82.506	-47.2026
11200.000000	82.028	-52.4707
11380.000000	81.283	-58.4239
11500.000000	80.756	-62.0897
11720.000000	79.760	-68.7137
11800.000000	79.365	-71.1731
12060.000000	77.820	-79.2990
12200.000000	76.795	-83.1506
12410.000000	75.033	-86.6161
12500.000000	74.223	-86.9165
12650.000000	72.859	-85.6453
12800.000000	71.576	-82.1830
13150.000000	69.783	-68.1793
13200.000000	69.738	-66.2894
13400.000000	70.031	-62.0573
13600.000000	70.614	-64.7926
13800.000000	70.930	-73.1813
14000.000000	70.854	-84.2856
14300.000000	70.501	-103.0707
14500.000000	70.368	-116.6721
14750.000000	70.362	-135.1922
15000.000000	70.609	-157.3034
15250.000000	71.262	175.4709
15500.000000	72.308	143.6829
15750.000000	73.525	107.8688
16000.000000	74.715	68.9895
16250.000000	75.756	29.3475
16500.000000	76.488	-9.3293
16750.000000	76.830	-45.7117
17000.000000	76.845	-78.9114
17250.000000	76.653	-109.6426
17500.000000	76.369	-138.5113
17750.000000	76.045	-165.4675
18000.000000	75.617	169.5977
18250.000000	75.002	147.4267
18500.000000	74.221	128.4541
18750.000000	73.411	111.6512
19000.000000	72.780	95.2529
19250.000000	72.535	77.0680
19500.000000	72.670	56.2084
19750.000000	72.943	36.1514
20000.000000	73.119	23.8955
