* Measurement data measured by REW V5.31.3
* Source: Microphone (4- USB Audio Device), MICROPHONE (Master Volume), R, volume: 0.250
* Format: 256k Log Swept Sine, 1 sweep at -12.0 dBFS with no timing reference
* Dated: 30-Oct-2024 20:32:52
* REW Settings:
*  C-weighting compensation: Off
*  Target level: 75.0 dB
* Note: 
* Measurement: FIIL Key Pro R
* Smoothing: 1/12 octave
* Frequency Step: 1/48 octave
* Start Frequency: 20.300 Hz
*
* Freq(Hz)	SPL(dB)	Phase(degrees)
20.299999	72.698	48.0769
20.600000	72.789	47.1827
20.900000	72.900	46.1125
21.200001	73.013	45.0298
21.400000	73.083	44.3284
21.799999	73.209	42.9817
22.000000	73.264	42.3296
22.400000	73.359	41.0449
22.700001	73.419	40.0802
23.000000	73.472	39.1005
23.299999	73.520	38.0982
23.600000	73.565	37.0701
24.000000	73.622	35.6612
24.299999	73.664	34.5811
24.700001	73.721	33.1207
25.000000	73.764	32.0177
25.400000	73.822	30.5489
25.799999	73.880	29.0969
26.200001	73.936	27.6787
26.500000	73.977	26.6466
26.900000	74.030	25.3204
27.200001	74.069	24.3631
27.600000	74.120	23.1278
28.000000	74.171	21.9215
28.500000	74.231	20.4222
29.000000	74.281	18.9080
29.500000	74.320	17.3784
30.000000	74.352	15.8539
30.400000	74.373	14.6540
30.700001	74.388	13.7711
31.100000	74.407	12.6186
31.500000	74.427	11.4930
32.000000	74.452	10.1187
32.500000	74.476	8.7744
33.000000	74.497	7.4552
33.500000	74.516	6.1579
34.000000	74.534	4.8803
34.500000	74.551	3.6206
35.000000	74.566	2.3766
35.500000	74.578	1.1462
36.000000	74.587	-0.0706
36.500000	74.593	-1.2711
37.000000	74.599	-2.4522
37.500000	74.603	-3.6136
38.200001	74.603	-5.2110
38.700001	74.598	-6.3343
39.500000	74.578	-8.0996
40.000000	74.559	-9.1848
40.599998	74.536	-10.4792
41.200001	74.514	-11.7750
41.799999	74.494	-13.0662
42.500000	74.475	-14.5367
43.099998	74.460	-15.7514
43.700001	74.446	-16.9402
44.400002	74.425	-18.3305
45.000000	74.395	-19.5288
45.500000	74.363	-20.5163
46.200001	74.317	-21.8656
46.799999	74.279	-22.9967
47.500000	74.236	-24.2798
48.200001	74.186	-25.4820
48.700001	74.152	-26.2893
49.400002	74.112	-27.4198
50.000000	74.083	-28.4661
50.799999	74.037	-29.9761
51.500000	73.985	-31.2940
52.200001	73.928	-32.5211
53.000000	73.861	-33.8243
53.799999	73.792	-35.0938
54.500000	73.732	-36.2147
55.200001	73.674	-37.3355
56.000000	73.609	-38.5741
57.000000	73.527	-40.0248
58.000000	73.440	-41.4079
59.000000	73.345	-42.7734
60.000000	73.251	-44.1346
60.799999	73.178	-45.2170
61.500000	73.114	-46.1518
62.200001	73.051	-47.0712
63.000000	72.978	-48.1092
64.000000	72.890	-49.4001
65.000000	72.801	-50.6666
66.000000	72.709	-51.8691
67.000000	72.612	-52.9976
68.000000	72.513	-54.0734
69.000000	72.418	-55.1241
70.000000	72.326	-56.1694
71.000000	72.239	-57.2102
72.000000	72.152	-58.2369
73.000000	72.063	-59.2451
74.000000	71.973	-60.2331
75.000000	71.885	-61.1873
76.199997	71.788	-62.2613
77.500000	71.685	-63.3511
78.800003	71.578	-64.4024
80.000000	71.481	-65.3403
81.199997	71.389	-66.2297
82.500000	71.294	-67.1452
83.800003	71.202	-68.0260
85.000000	71.118	-68.8010
86.199997	71.034	-69.5525
87.500000	70.941	-70.3613
88.500000	70.871	-70.9728
90.000000	70.772	-71.8546
91.199997	70.700	-72.5429
92.500000	70.628	-73.2786
93.800003	70.560	-73.9937
95.000000	70.499	-74.6421
96.199997	70.439	-75.2892
97.500000	70.372	-75.9786
98.800003	70.304	-76.6408
100.000000	70.239	-77.2286
101.500000	70.158	-77.9476
103.000000	70.082	-78.6790
104.400002	70.021	-79.4000
106.000000	69.963	-80.2743
107.500000	69.921	-81.1074
109.000000	69.883	-81.9193
110.599998	69.847	-82.7711
112.000000	69.816	-83.5125
113.800003	69.775	-84.4358
115.000000	69.746	-85.0351
117.199997	69.693	-86.1591
118.000000	69.676	-86.5873
120.599998	69.625	-88.0453
122.000000	69.596	-88.8522
124.099998	69.551	-90.0374
125.000000	69.531	-90.5238
126.500000	69.496	-91.3176
128.000000	69.466	-92.1085
131.500000	69.418	-93.8965
132.000000	69.411	-94.1441
134.000000	69.377	-95.1564
136.000000	69.336	-96.2344
138.000000	69.296	-97.3474
140.000000	69.261	-98.4707
143.000000	69.220	-100.1653
145.000000	69.195	-101.2769
147.500000	69.155	-102.6412
150.000000	69.110	-103.9862
152.500000	69.067	-105.2890
155.000000	69.026	-106.5386
157.500000	68.984	-107.7665
160.000000	68.943	-108.9947
162.500000	68.904	-110.1987
165.000000	68.871	-111.3419
167.500000	68.840	-112.3965
170.000000	68.807	-113.3785
172.500000	68.774	-114.3164
175.000000	68.741	-115.2456
177.500000	68.705	-116.1974
180.000000	68.659	-117.1699
182.500000	68.599	-118.1410
185.000000	68.526	-119.0981
187.500000	68.442	-120.0226
190.000000	68.350	-120.9046
192.500000	68.261	-121.7678
195.000000	68.184	-122.6169
197.500000	68.124	-123.4351
200.000000	68.079	-124.2246
203.000000	68.045	-125.1637
206.000000	68.025	-126.0992
209.000000	68.006	-127.0261
212.000000	67.976	-127.9497
214.000000	67.951	-128.5669
218.000000	67.890	-129.7829
220.000000	67.855	-130.3622
224.000000	67.779	-131.4520
227.000000	67.719	-132.2104
230.000000	67.658	-132.9122
233.000000	67.599	-133.5582
236.000000	67.543	-134.1671
240.000000	67.483	-134.9366
243.000000	67.449	-135.4759
247.000000	67.420	-136.1952
250.000000	67.413	-136.7818
254.000000	67.424	-137.6892
258.000000	67.447	-138.7739
262.000000	67.463	-140.0061
265.000000	67.467	-140.9943
269.000000	67.463	-142.3467
272.000000	67.455	-143.3548
276.000000	67.436	-144.6636
280.000000	67.409	-145.9244
285.000000	67.369	-147.4256
290.000000	67.329	-148.8633
295.000000	67.289	-150.2679
300.000000	67.251	-151.6077
304.000000	67.224	-152.6227
307.000000	67.207	-153.3680
311.000000	67.183	-154.3559
315.000000	67.155	-155.3337
320.000000	67.123	-156.5298
325.000000	67.097	-157.6984
330.000000	67.078	-158.8309
335.000000	67.065	-159.9133
340.000000	67.057	-160.9798
345.000000	67.049	-162.0606
350.000000	67.037	-163.1381
355.000000	67.020	-164.2038
360.000000	67.001	-165.2913
365.000000	66.984	-166.4157
370.000000	66.972	-167.5322
375.000000	66.967	-168.6254
382.000000	66.969	-170.1925
387.000000	66.975	-171.3598
395.000000	66.978	-173.3066
400.000000	66.971	-174.5911
406.000000	66.956	-176.2288
412.000000	66.932	-177.9490
418.000000	66.910	-179.7124
425.000000	66.896	178.2433
431.000000	66.893	176.5490
437.000000	66.898	174.9039
444.000000	66.908	172.9880
450.000000	66.913	171.3096
455.000000	66.912	169.8903
462.000000	66.907	167.8983
468.000000	66.900	166.1923
475.000000	66.890	164.1780
482.000000	66.883	162.1022
487.000000	66.881	160.5699
494.000000	66.880	158.3692
500.000000	66.879	156.4528
508.000000	66.878	153.8707
515.000000	66.873	151.6198
522.000000	66.864	149.4024
530.000000	66.851	146.8904
538.000000	66.837	144.3820
545.000000	66.825	142.2114
552.000000	66.814	140.0824
560.000000	66.803	137.6854
570.000000	66.790	134.7007
580.000000	66.773	131.7356
590.000000	66.756	128.7669
600.000000	66.736	125.7806
608.000000	66.716	123.4095
615.000000	66.699	121.3692
622.000000	66.683	119.3638
630.000000	66.668	117.1106
640.000000	66.652	114.3713
650.000000	66.639	111.7115
660.000000	66.627	109.0946
670.000000	66.617	106.5243
680.000000	66.608	103.9597
690.000000	66.600	101.3300
700.000000	66.590	98.6686
710.000000	66.578	96.0200
720.000000	66.562	93.3832
730.000000	66.541	90.7835
740.000000	66.517	88.2507
750.000000	66.490	85.7831
762.000000	66.459	82.8898
775.000000	66.435	79.8151
788.000000	66.430	76.8385
800.000000	66.439	74.1810
812.000000	66.448	71.5647
825.000000	66.452	68.6924
838.000000	66.457	65.7288
850.000000	66.466	62.9502
862.000000	66.473	60.1814
875.000000	66.477	57.2028
885.000000	66.482	54.9250
900.000000	66.494	51.5613
912.000000	66.508	48.9310
925.000000	66.528	46.1213
938.000000	66.553	43.2946
950.000000	66.580	40.6166
962.000000	66.607	37.8769
975.000000	66.634	34.8754
988.000000	66.660	31.8477
1000.000000	66.690	29.0060
1015.000000	66.734	25.3862
1030.000000	66.783	21.7147
1044.000000	66.831	18.2457
1060.000000	66.887	14.2501
1075.000000	66.939	10.5035
1090.000000	66.992	6.7576
1106.000000	67.050	2.7439
1120.000000	67.099	-0.7872
1138.000000	67.160	-5.3635
1150.000000	67.201	-8.4343
1172.000000	67.283	-14.0604
1180.000000	67.315	-16.1000
1206.000000	67.426	-22.6805
1220.000000	67.492	-26.1740
1241.000000	67.612	-31.3353
1250.000000	67.674	-33.5135
1265.000000	67.793	-37.0922
1280.000000	67.925	-40.6215
1315.000000	68.223	-48.8689
1320.000000	68.258	-50.0619
1340.000000	68.362	-54.8793
1360.000000	68.410	-59.7665
1380.000000	68.422	-64.7038
1400.000000	68.424	-69.6505
1430.000000	68.453	-77.0585
1450.000000	68.509	-82.0361
1475.000000	68.618	-88.3592
1500.000000	68.748	-94.7583
1525.000000	68.890	-100.9625
1550.000000	69.033	-106.5128
1575.000000	69.197	-111.0820
1600.000000	69.398	-114.6052
1625.000000	69.613	-117.3706
1650.000000	69.817	-119.7939
1675.000000	70.015	-122.1111
1700.000000	70.212	-124.4342
1725.000000	70.405	-126.7897
1750.000000	70.594	-129.1724
1775.000000	70.785	-131.5519
1800.000000	70.978	-133.9087
1825.000000	71.171	-136.2368
1850.000000	71.362	-138.5231
1875.000000	71.554	-140.7554
1900.000000	71.747	-142.9091
1925.000000	71.943	-144.9825
1950.000000	72.147	-147.0074
1975.000000	72.360	-149.0409
2000.000000	72.578	-151.1284
2030.000000	72.846	-153.6765
2060.000000	73.129	-156.2010
2090.000000	73.418	-158.6409
2120.000000	73.706	-160.9536
2140.000000	73.898	-162.4145
2180.000000	74.280	-165.2524
2200.000000	74.463	-166.7021
2240.000000	74.799	-169.7288
2270.000000	75.029	-172.0921
2300.000000	75.249	-174.4606
2330.000000	75.456	-176.7819
2360.000000	75.644	-179.0370
2400.000000	75.864	178.1179
2430.000000	76.015	176.1577
2470.000000	76.206	173.8565
2500.000000	76.342	172.3597
2540.000000	76.512	170.5842
2580.000000	76.672	168.9680
2620.000000	76.821	167.4637
2650.000000	76.924	166.4491
2690.000000	77.055	165.3961
2720.000000	77.154	164.8868
2760.000000	77.282	164.4979
2800.000000	77.398	164.2522
2850.000000	77.532	164.0322
2900.000000	77.653	163.9745
2950.000000	77.747	164.2383
3000.000000	77.837	165.2786
3040.000000	77.914	166.8689
3070.000000	77.969	168.4348
3110.000000	78.037	170.8658
3150.000000	78.102	173.5401
3200.000000	78.175	177.0850
3250.000000	78.236	-179.2180
3300.000000	78.286	-175.3748
3350.000000	78.327	-171.4436
3400.000000	78.352	-167.5386
3450.000000	78.365	-163.7159
3500.000000	78.368	-160.0544
3550.000000	78.355	-156.6119
3600.000000	78.334	-153.2780
3650.000000	78.318	-149.8727
3700.000000	78.313	-146.3540
3750.000000	78.322	-142.8820
3820.000000	78.348	-138.8864
3870.000000	78.359	-137.3529
3950.000000	78.353	-137.4789
4000.000000	78.350	-138.5160
4060.000000	78.344	-139.9639
4120.000000	78.325	-141.3552
4180.000000	78.290	-142.7765
4250.000000	78.233	-144.6883
4310.000000	78.180	-146.6376
4370.000000	78.130	-148.7611
4440.000000	78.095	-151.0975
4500.000000	78.094	-152.7890
4550.000000	78.111	-154.0278
4620.000000	78.154	-155.7474
4680.000000	78.196	-157.4391
4750.000000	78.239	-159.7554
4820.000000	78.277	-162.2079
4870.000000	78.302	-163.9428
4940.000000	78.322	-166.4993
5000.000000	78.313	-169.0038
5080.000000	78.250	-172.7858
5150.000000	78.138	-176.3311
5220.000000	77.965	-179.9518
5300.000000	77.695	176.1281
5380.000000	77.364	172.9030
5450.000000	77.035	170.7365
5520.000000	76.673	168.9019
5600.000000	76.228	166.9064
5700.000000	75.667	164.6005
5800.000000	75.132	162.7548
5900.000000	74.647	161.5778
6000.000000	74.216	161.0394
6080.000000	73.900	161.0768
6150.000000	73.642	161.6274
6220.000000	73.403	162.7806
6300.000000	73.152	164.8544
6400.000000	72.877	168.4379
6500.000000	72.649	172.9058
6600.000000	72.480	177.9962
6700.000000	72.372	-176.6908
6800.000000	72.328	-171.5333
6900.000000	72.352	-166.6583
7000.000000	72.442	-162.1544
7100.000000	72.597	-158.2336
7200.000000	72.825	-154.9928
7300.000000	73.135	-152.3809
7400.000000	73.529	-150.3643
7500.000000	74.010	-148.9415
7620.000000	74.698	-147.9998
7750.000000	75.533	-148.1530
7880.000000	76.360	-150.4520
8000.000000	77.026	-155.0314
8120.000000	77.527	-161.6322
8250.000000	77.791	-170.3270
8380.000000	77.676	-179.8174
8500.000000	77.201	171.8205
8620.000000	76.402	165.0492
8750.000000	75.260	160.2218
8850.000000	74.251	158.1559
9000.000000	72.633	156.9642
9120.000000	71.328	157.1022
9250.000000	69.966	158.0843
9380.000000	68.692	159.8829
9500.000000	67.608	162.2858
9620.000000	66.620	165.6075
9750.000000	65.659	170.5052
9880.000000	64.806	176.7491
10000.000000	64.107	-176.5696
10150.000000	63.333	-167.5816
10300.000000	62.649	-158.1057
10440.000000	62.087	-148.3726
10600.000000	61.526	-135.7264
10750.000000	61.076	-122.1873
10900.000000	60.708	-107.1643
11060.000000	60.403	-90.5092
11200.000000	60.202	-76.2082
11380.000000	60.034	-58.0895
11500.000000	59.980	-45.8619
11720.000000	60.007	-23.2059
11800.000000	60.058	-15.0466
12060.000000	60.381	10.4365
12200.000000	60.654	23.2863
12410.000000	61.174	41.2825
12500.000000	61.427	48.5719
12650.000000	61.875	60.4470
12800.000000	62.353	72.4126
13150.000000	63.576	101.9105
13200.000000	63.767	106.1764
13400.000000	64.593	122.3241
13600.000000	65.532	135.6965
13800.000000	66.535	145.7407
14000.000000	67.459	152.7352
14300.000000	68.326	158.5164
14500.000000	68.389	160.5853
14750.000000	67.880	164.0697
15000.000000	66.895	171.9338
15250.000000	65.681	-171.5710
15500.000000	64.474	-138.5263
15750.000000	63.429	-71.4673
16000.000000	62.669	28.0607
16250.000000	62.327	109.3169
16500.000000	62.446	-171.7916
16750.000000	62.919	-86.6268
17000.000000	63.538	-4.4786
17250.000000	64.071	64.9290
17500.000000	64.311	123.2651
17750.000000	64.124	176.4476
18000.000000	63.477	-130.1744
18250.000000	62.443	-69.8159
18500.000000	61.150	2.3564
18750.000000	59.723	86.8059
19000.000000	58.267	171.5535
19250.000000	56.858	-117.1851
19500.000000	55.557	-41.3380
19750.000000	54.466	143.5913
20000.000000	53.821	166.0233
