* Measurement data measured by REW V5.31.3
* Source: Microphone (USB Sound Device        ), MICROPHONE (Master Volume), L, volume: 0.700
* Format: 256k Log Swept Sine, 1 sweep at -12.0 dBFS with no timing reference
* Dated: 29-Jan-2025 20:57:01
* REW Settings:
*  C-weighting compensation: Off
*  Target level: 75.0 dB
* Note: 
* Measurement: FKP ANC on O L
* Smoothing: 1/12 octave
* Frequency Step: 1/48 octave
* Start Frequency: 20.300 Hz
*
* Freq(Hz)	SPL(dB)	Phase(degrees)
20.299999	80.206	19.7077
20.600000	80.242	19.0002
20.900000	80.284	18.1056
21.200001	80.324	17.1366
21.400000	80.348	16.4727
21.799999	80.387	15.1290
22.000000	80.404	14.4576
22.400000	80.433	13.1301
22.700001	80.453	12.1541
23.000000	80.473	11.1954
23.299999	80.495	10.2503
23.600000	80.517	9.3142
24.000000	80.544	8.0740
24.299999	80.562	7.1485
24.700001	80.582	5.9226
25.000000	80.594	5.0109
25.400000	80.607	3.8072
25.799999	80.616	2.6181
26.200001	80.621	1.4456
26.500000	80.621	0.5799
26.900000	80.617	-0.5523
27.200001	80.611	-1.3837
27.600000	80.603	-2.4704
28.000000	80.593	-3.5375
28.500000	80.579	-4.8529
29.000000	80.562	-6.1501
29.500000	80.543	-7.4227
30.000000	80.522	-8.6665
30.400000	80.505	-9.6449
30.700001	80.491	-10.3735
31.100000	80.472	-11.3417
31.500000	80.452	-12.3056
32.000000	80.424	-13.4943
32.500000	80.394	-14.6522
33.000000	80.364	-15.7778
33.500000	80.334	-16.8832
34.000000	80.302	-17.9790
34.500000	80.266	-19.0607
35.000000	80.226	-20.1142
35.500000	80.183	-21.1320
36.000000	80.141	-22.1218
36.500000	80.101	-23.0981
37.000000	80.059	-24.0683
37.500000	80.014	-25.0309
38.200001	79.945	-26.3622
38.700001	79.891	-27.3025
39.500000	79.801	-28.7789
40.000000	79.743	-29.6741
40.599998	79.676	-30.7237
41.200001	79.611	-31.7615
41.799999	79.546	-32.7878
42.500000	79.466	-33.9414
43.099998	79.397	-34.8780
43.700001	79.330	-35.7823
44.400002	79.255	-36.8280
45.000000	79.189	-37.7240
45.500000	79.133	-38.4648
46.200001	79.049	-39.4853
46.799999	78.973	-40.3432
47.500000	78.882	-41.3228
48.200001	78.791	-42.2759
48.700001	78.730	-42.9376
49.400002	78.648	-43.8326
50.000000	78.577	-44.5660
50.799999	78.473	-45.5015
51.500000	78.374	-46.3031
52.200001	78.271	-47.1117
53.000000	78.157	-48.0475
53.799999	78.047	-48.9707
54.500000	77.954	-49.7372
55.200001	77.860	-50.4478
56.000000	77.752	-51.2056
57.000000	77.621	-52.1214
58.000000	77.494	-53.0215
59.000000	77.367	-53.8837
60.000000	77.237	-54.6825
60.799999	77.134	-55.2885
61.500000	77.047	-55.8200
62.200001	76.963	-56.3628
63.000000	76.866	-56.9882
64.000000	76.740	-57.7487
65.000000	76.610	-58.4582
66.000000	76.479	-59.1029
67.000000	76.353	-59.7032
68.000000	76.228	-60.2919
69.000000	76.102	-60.8582
70.000000	75.979	-61.3814
71.000000	75.860	-61.8684
72.000000	75.742	-62.3306
73.000000	75.624	-62.7617
74.000000	75.513	-63.1507
75.000000	75.409	-63.5148
76.199997	75.291	-63.9629
77.500000	75.159	-64.4723
78.800003	75.019	-64.9557
80.000000	74.889	-65.3368
81.199997	74.767	-65.6595
82.500000	74.642	-65.9717
83.800003	74.524	-66.2777
85.000000	74.419	-66.5712
86.199997	74.316	-66.8643
87.500000	74.214	-67.1691
88.500000	74.139	-67.3931
90.000000	74.030	-67.7162
91.199997	73.942	-67.9432
92.500000	73.848	-68.1311
93.800003	73.761	-68.2951
95.000000	73.683	-68.4535
96.199997	73.608	-68.6026
97.500000	73.531	-68.7354
98.800003	73.458	-68.8455
100.000000	73.392	-68.9501
101.500000	73.315	-69.1297
103.000000	73.241	-69.3656
104.400002	73.179	-69.5822
106.000000	73.120	-69.7938
107.500000	73.071	-69.9765
109.000000	73.023	-70.1572
110.599998	72.972	-70.3633
112.000000	72.929	-70.5532
113.800003	72.881	-70.7894
115.000000	72.853	-70.9480
117.199997	72.797	-71.2745
118.000000	72.774	-71.4045
120.599998	72.701	-71.8190
122.000000	72.669	-72.0298
124.099998	72.636	-72.3723
125.000000	72.625	-72.5305
126.500000	72.607	-72.8002
128.000000	72.586	-73.0737
131.500000	72.529	-73.7664
132.000000	72.522	-73.8757
134.000000	72.497	-74.3369
136.000000	72.472	-74.8162
138.000000	72.438	-75.3196
140.000000	72.398	-75.8606
143.000000	72.347	-76.6714
145.000000	72.324	-77.2104
147.500000	72.294	-77.9296
150.000000	72.264	-78.6788
152.500000	72.245	-79.4432
155.000000	72.234	-80.2306
157.500000	72.223	-81.0284
160.000000	72.206	-81.7934
162.500000	72.183	-82.5136
165.000000	72.157	-83.2559
167.500000	72.131	-84.0630
170.000000	72.105	-84.9028
172.500000	72.076	-85.7329
175.000000	72.048	-86.5308
177.500000	72.018	-87.2959
180.000000	71.985	-88.0427
182.500000	71.940	-88.8010
185.000000	71.880	-89.5879
187.500000	71.810	-90.3793
190.000000	71.737	-91.1515
192.500000	71.666	-91.9097
195.000000	71.605	-92.6655
197.500000	71.558	-93.4284
200.000000	71.526	-94.2013
203.000000	71.504	-95.1114
206.000000	71.490	-95.9755
209.000000	71.478	-96.8170
212.000000	71.462	-97.6368
214.000000	71.448	-98.1663
218.000000	71.406	-99.2135
220.000000	71.380	-99.7377
224.000000	71.323	-100.7759
227.000000	71.276	-101.5488
230.000000	71.226	-102.3285
233.000000	71.179	-103.0992
236.000000	71.135	-103.8144
240.000000	71.076	-104.6665
243.000000	71.033	-105.2746
247.000000	70.975	-106.0844
250.000000	70.933	-106.6967
254.000000	70.880	-107.5242
258.000000	70.838	-108.3659
262.000000	70.802	-109.1868
265.000000	70.777	-109.7663
269.000000	70.744	-110.5093
272.000000	70.721	-111.0583
276.000000	70.693	-111.7797
280.000000	70.669	-112.4759
285.000000	70.645	-113.3043
290.000000	70.620	-114.1272
295.000000	70.598	-114.9577
300.000000	70.584	-115.7455
304.000000	70.581	-116.3416
307.000000	70.583	-116.7861
311.000000	70.591	-117.3770
315.000000	70.603	-117.9663
320.000000	70.622	-118.6977
325.000000	70.650	-119.4337
330.000000	70.687	-120.1692
335.000000	70.735	-120.9057
340.000000	70.799	-121.6682
345.000000	70.881	-122.4698
350.000000	70.968	-123.3084
355.000000	71.050	-124.1578
360.000000	71.134	-125.0161
365.000000	71.232	-125.9154
370.000000	71.348	-126.8878
375.000000	71.475	-127.9659
382.000000	71.657	-129.6576
387.000000	71.788	-130.9895
395.000000	72.002	-133.3620
400.000000	72.134	-135.0008
406.000000	72.280	-137.1508
412.000000	72.407	-139.5188
418.000000	72.513	-142.0762
425.000000	72.603	-145.1967
431.000000	72.642	-147.9205
437.000000	72.636	-150.6714
444.000000	72.571	-153.8949
450.000000	72.472	-156.6325
455.000000	72.366	-158.8494
462.000000	72.191	-161.7697
468.000000	72.021	-164.0361
475.000000	71.804	-166.3740
482.000000	71.576	-168.4133
487.000000	71.408	-169.7292
494.000000	71.173	-171.4573
500.000000	70.975	-172.8805
508.000000	70.723	-174.6580
515.000000	70.511	-176.0139
522.000000	70.305	-177.1452
530.000000	70.079	-178.2022
538.000000	69.866	-179.0526
545.000000	69.689	-179.6577
552.000000	69.522	179.8324
560.000000	69.342	179.3503
570.000000	69.130	178.8916
580.000000	68.934	178.5451
590.000000	68.754	178.2437
600.000000	68.592	177.9518
608.000000	68.473	177.6882
615.000000	68.376	177.4355
622.000000	68.282	177.1806
630.000000	68.178	176.8848
640.000000	68.045	176.4570
650.000000	67.910	175.9480
660.000000	67.777	175.3890
670.000000	67.640	174.8331
680.000000	67.493	174.3193
690.000000	67.341	173.8410
700.000000	67.186	173.3544
710.000000	67.023	172.8437
720.000000	66.838	172.3569
730.000000	66.628	171.9518
740.000000	66.398	171.6650
750.000000	66.153	171.5486
762.000000	65.846	171.7045
775.000000	65.508	172.2750
788.000000	65.169	173.2678
800.000000	64.868	174.4913
812.000000	64.595	175.9503
825.000000	64.340	177.7517
838.000000	64.126	179.6945
850.000000	63.965	-178.4552
862.000000	63.840	-176.6092
875.000000	63.746	-174.6335
885.000000	63.700	-173.1177
900.000000	63.666	-170.8874
912.000000	63.659	-169.1988
925.000000	63.662	-167.5021
938.000000	63.672	-165.9036
950.000000	63.689	-164.4782
962.000000	63.716	-163.1017
975.000000	63.760	-161.6731
988.000000	63.811	-160.3101
1000.000000	63.858	-159.1257
1015.000000	63.913	-157.7601
1030.000000	63.967	-156.4729
1044.000000	64.011	-155.3110
1060.000000	64.052	-153.9863
1075.000000	64.088	-152.7265
1090.000000	64.130	-151.4768
1106.000000	64.185	-150.1661
1120.000000	64.234	-149.0327
1138.000000	64.283	-147.6083
1150.000000	64.308	-146.6763
1172.000000	64.351	-144.9545
1180.000000	64.369	-144.2977
1206.000000	64.437	-141.9798
1220.000000	64.481	-140.6224
1241.000000	64.573	-138.5060
1250.000000	64.627	-137.5879
1265.000000	64.738	-136.0868
1280.000000	64.868	-134.6858
1315.000000	65.185	-132.0131
1320.000000	65.229	-131.7024
1340.000000	65.393	-130.6204
1360.000000	65.536	-129.7766
1380.000000	65.660	-129.1677
1400.000000	65.777	-128.7670
1430.000000	65.962	-128.4272
1450.000000	66.100	-128.3021
1475.000000	66.299	-128.1693
1500.000000	66.525	-128.0056
1525.000000	66.774	-127.8767
1550.000000	67.034	-127.8621
1575.000000	67.293	-127.9715
1600.000000	67.542	-128.1995
1625.000000	67.776	-128.5362
1650.000000	67.999	-128.9236
1675.000000	68.213	-129.3222
1700.000000	68.415	-129.7028
1725.000000	68.606	-130.0437
1750.000000	68.799	-130.3533
1775.000000	69.000	-130.6398
1800.000000	69.210	-130.9290
1825.000000	69.428	-131.2630
1850.000000	69.651	-131.6918
1875.000000	69.876	-132.2377
1900.000000	70.099	-132.8951
1925.000000	70.314	-133.6549
1950.000000	70.517	-134.4984
1975.000000	70.710	-135.4046
2000.000000	70.891	-136.3519
2030.000000	71.093	-137.5169
2060.000000	71.285	-138.7176
2090.000000	71.464	-139.9221
2120.000000	71.626	-141.1000
2140.000000	71.726	-141.8793
2180.000000	71.915	-143.4661
2200.000000	72.008	-144.2664
2240.000000	72.188	-145.7995
2270.000000	72.312	-146.8600
2300.000000	72.430	-147.8501
2330.000000	72.552	-148.7780
2360.000000	72.681	-149.6685
2400.000000	72.867	-150.8539
2430.000000	73.017	-151.7800
2470.000000	73.230	-153.1289
2500.000000	73.395	-154.2406
2540.000000	73.610	-155.8453
2580.000000	73.806	-157.5789
2620.000000	73.980	-159.4021
2650.000000	74.096	-160.8018
2690.000000	74.236	-162.6872
2720.000000	74.334	-164.0945
2760.000000	74.460	-165.9262
2800.000000	74.581	-167.6812
2850.000000	74.720	-169.8193
2900.000000	74.842	-171.9943
2950.000000	74.948	-174.2166
3000.000000	75.046	-176.4263
3040.000000	75.120	-178.1594
3070.000000	75.173	-179.4323
3110.000000	75.240	178.9092
3150.000000	75.308	177.2844
3200.000000	75.392	175.2816
3250.000000	75.467	173.3199
3300.000000	75.532	171.3864
3350.000000	75.593	169.4611
3400.000000	75.651	167.5446
3450.000000	75.703	165.6554
3500.000000	75.750	163.7955
3550.000000	75.793	161.9700
3600.000000	75.835	160.1812
3650.000000	75.882	158.4140
3700.000000	75.939	156.6581
3750.000000	76.011	154.9298
3820.000000	76.137	152.5834
3870.000000	76.241	150.9463
3950.000000	76.426	148.3713
4000.000000	76.546	146.7826
4060.000000	76.691	144.8643
4120.000000	76.833	142.9247
4180.000000	76.973	140.9764
4250.000000	77.145	138.6642
4310.000000	77.309	136.6099
4370.000000	77.496	134.4609
4440.000000	77.760	131.7809
4500.000000	78.036	129.2725
4550.000000	78.301	126.9919
4620.000000	78.716	123.4288
4680.000000	79.100	119.9374
4750.000000	79.559	115.2248
4820.000000	79.992	109.7123
4870.000000	80.262	105.2626
4940.000000	80.545	98.4037
5000.000000	80.663	92.1794
5080.000000	80.593	84.1151
5150.000000	80.300	78.1142
5220.000000	79.796	73.6850
5300.000000	79.000	70.7134
5380.000000	78.059	69.8888
5450.000000	77.204	70.7656
5520.000000	76.392	72.8714
5600.000000	75.574	76.3358
5700.000000	74.750	81.5371
5800.000000	74.117	87.1743
5900.000000	73.628	92.9905
6000.000000	73.239	98.9085
6080.000000	72.977	103.7257
6150.000000	72.776	108.0111
6220.000000	72.598	112.3629
6300.000000	72.423	117.4093
6400.000000	72.250	123.7944
6500.000000	72.131	130.2206
6600.000000	72.069	136.6290
6700.000000	72.059	142.9850
6800.000000	72.094	149.2980
6900.000000	72.178	155.6400
7000.000000	72.324	162.0712
7100.000000	72.561	168.4899
7200.000000	72.905	174.6787
7300.000000	73.351	-179.5639
7400.000000	73.886	-174.4209
7500.000000	74.492	-170.0683
7620.000000	75.265	-166.1352
7750.000000	76.041	-163.7014
7880.000000	76.605	-163.1539
8000.000000	76.824	-163.9790
8120.000000	76.693	-165.4515
8250.000000	76.153	-166.8694
8380.000000	75.268	-167.2033
8500.000000	74.241	-165.9684
8620.000000	73.110	-163.0045
8750.000000	71.864	-157.9159
8850.000000	70.935	-152.8730
9000.000000	69.620	-143.8533
9120.000000	68.638	-135.6344
9250.000000	67.645	-125.9494
9380.000000	66.727	-115.6222
9500.000000	65.949	-105.5988
9620.000000	65.243	-95.1736
9750.000000	64.556	-83.5268
9880.000000	63.943	-71.5920
10000.000000	63.439	-60.3545
10150.000000	62.884	-46.0601
10300.000000	62.409	-31.5327
10440.000000	62.032	-17.7551
10600.000000	61.678	-1.7388
10750.000000	61.418	13.4825
10900.000000	61.230	28.8296
11060.000000	61.110	45.3127
11200.000000	61.072	59.8215
11380.000000	61.112	78.5985
11500.000000	61.197	91.2104
11720.000000	61.501	114.5174
11800.000000	61.665	123.0218
12060.000000	62.410	150.3707
12200.000000	62.946	164.3591
12410.000000	63.917	-177.3168
12500.000000	64.388	-170.9867
12650.000000	65.232	-162.8471
12800.000000	66.135	-157.5282
13150.000000	68.268	-154.0074
13200.000000	68.545	-154.4340
13400.000000	69.489	-158.2954
13600.000000	70.033	-164.9645
13800.000000	70.047	-172.9608
14000.000000	69.505	179.5802
14300.000000	67.935	172.6151
14500.000000	66.679	171.7152
14750.000000	65.177	174.5463
15000.000000	63.937	-179.3673
15250.000000	63.019	-171.4617
15500.000000	62.403	-162.9983
15750.000000	62.098	-154.9914
16000.000000	62.170	-148.4261
16250.000000	62.603	-144.2246
16500.000000	63.207	-143.0496
16750.000000	63.702	-144.9428
17000.000000	63.844	-149.0615
17250.000000	63.496	-153.9267
17500.000000	62.662	-157.9391
17750.000000	61.458	-159.9112
18000.000000	60.056	-159.2921
18250.000000	58.625	-156.0657
18500.000000	57.268	-150.5939
18750.000000	56.025	-143.3718
19000.000000	54.910	-134.7880
19250.000000	53.918	-125.2025
19500.000000	53.038	-115.1030
19750.000000	52.315	-105.7412
20000.000000	51.892	-99.8666
