* Measurement data measured by REW V5.31.3
* Source: Microphone (USB Sound Device        ), MICROPHONE (Master Volume), L, volume: 0.700
* Format: 256k Log Swept Sine, 1 sweep at -12.0 dBFS with no timing reference
* Dated: 29-Jan-2025 20:59:26
* REW Settings:
*  C-weighting compensation: Off
*  Target level: 75.0 dB
* Note: 
* Measurement: FKP ANC off O L
* Smoothing: 1/12 octave
* Frequency Step: 1/48 octave
* Start Frequency: 20.300 Hz
*
* Freq(Hz)	SPL(dB)	Phase(degrees)
20.299999	77.129	-167.1217
20.600000	77.154	-167.5169
20.900000	77.184	-168.0272
21.200001	77.213	-168.5980
21.400000	77.231	-169.0006
21.799999	77.256	-169.8371
22.000000	77.264	-170.2608
22.400000	77.274	-171.0949
22.700001	77.279	-171.6956
23.000000	77.285	-172.2704
23.299999	77.293	-172.8219
23.600000	77.304	-173.3559
24.000000	77.319	-174.0517
24.299999	77.330	-174.5676
24.700001	77.342	-175.2527
25.000000	77.348	-175.7656
25.400000	77.352	-176.4470
25.799999	77.352	-177.1226
26.200001	77.351	-177.7894
26.500000	77.349	-178.2833
26.900000	77.346	-178.9353
27.200001	77.344	-179.4207
27.600000	77.340	179.9369
28.000000	77.333	179.3029
28.500000	77.321	178.5282
29.000000	77.304	177.7745
29.500000	77.286	177.0350
30.000000	77.269	176.3040
30.400000	77.255	175.7256
30.700001	77.245	175.2964
31.100000	77.232	174.7297
31.500000	77.219	174.1671
32.000000	77.201	173.4658
32.500000	77.180	172.7679
33.000000	77.155	172.0799
33.500000	77.129	171.4076
34.000000	77.102	170.7538
34.500000	77.077	170.1172
35.000000	77.052	169.4911
35.500000	77.023	168.8656
36.000000	76.989	168.2396
36.500000	76.949	167.6284
37.000000	76.906	167.0487
37.500000	76.869	166.4947
38.200001	76.829	165.7035
38.700001	76.802	165.1078
39.500000	76.746	164.1963
40.000000	76.702	163.7114
40.599998	76.652	163.1870
41.200001	76.605	162.6313
41.799999	76.556	161.9974
42.500000	76.490	161.2283
43.099998	76.431	160.6260
43.700001	76.377	160.0817
44.400002	76.317	159.4509
45.000000	76.259	158.8846
45.500000	76.203	158.4209
46.200001	76.123	157.8387
46.799999	76.065	157.3915
47.500000	76.013	156.8563
48.200001	75.958	156.2778
48.700001	75.911	155.8671
49.400002	75.836	155.3352
50.000000	75.766	154.9181
50.799999	75.667	154.3878
51.500000	75.578	153.9341
52.200001	75.493	153.4782
53.000000	75.403	152.9461
53.799999	75.317	152.4261
54.500000	75.244	152.0043
55.200001	75.170	151.6079
56.000000	75.080	151.1637
57.000000	74.959	150.6114
58.000000	74.839	150.0863
59.000000	74.721	149.6163
60.000000	74.603	149.1939
60.799999	74.511	148.8594
61.500000	74.434	148.5627
62.200001	74.358	148.2856
63.000000	74.269	148.0245
64.000000	74.157	147.7847
65.000000	74.050	147.5889
66.000000	73.951	147.3879
67.000000	73.852	147.1707
68.000000	73.747	146.9515
69.000000	73.639	146.7359
70.000000	73.530	146.5274
71.000000	73.419	146.3563
72.000000	73.308	146.2539
73.000000	73.198	146.2159
74.000000	73.094	146.2030
75.000000	72.997	146.1826
76.199997	72.884	146.1696
77.500000	72.763	146.2156
78.800003	72.647	146.2713
80.000000	72.539	146.2899
81.199997	72.430	146.3223
82.500000	72.314	146.4443
83.800003	72.204	146.6458
85.000000	72.109	146.8258
86.199997	72.017	146.9592
87.500000	71.918	147.0805
88.500000	71.842	147.1953
90.000000	71.732	147.4193
91.199997	71.650	147.6144
92.500000	71.564	147.8114
93.800003	71.477	148.0053
95.000000	71.395	148.2083
96.199997	71.313	148.4304
97.500000	71.227	148.6732
98.800003	71.147	148.9208
100.000000	71.081	149.1649
101.500000	71.009	149.5121
103.000000	70.946	149.8915
104.400002	70.896	150.2302
106.000000	70.843	150.5974
107.500000	70.793	150.9329
109.000000	70.742	151.2465
110.599998	70.690	151.5270
112.000000	70.645	151.7126
113.800003	70.590	151.9102
115.000000	70.554	152.0656
117.199997	70.489	152.4247
118.000000	70.468	152.5612
120.599998	70.415	152.9674
122.000000	70.393	153.1601
124.099998	70.363	153.4595
125.000000	70.351	153.6091
126.500000	70.330	153.8895
128.000000	70.305	154.1722
131.500000	70.231	154.5851
132.000000	70.220	154.6214
134.000000	70.181	154.7740
136.000000	70.147	154.9704
138.000000	70.118	155.1991
140.000000	70.094	155.4501
143.000000	70.063	155.8337
145.000000	70.043	156.0809
147.500000	70.026	156.3139
150.000000	70.018	156.4042
152.500000	70.015	156.3975
155.000000	70.009	156.3604
157.500000	69.991	156.2740
160.000000	69.963	156.1180
162.500000	69.928	155.9704
165.000000	69.893	155.8866
167.500000	69.859	155.8459
170.000000	69.824	155.8003
172.500000	69.790	155.7216
175.000000	69.761	155.6317
177.500000	69.734	155.5555
180.000000	69.705	155.5038
182.500000	69.669	155.4820
185.000000	69.620	155.4594
187.500000	69.558	155.4250
190.000000	69.484	155.3893
192.500000	69.406	155.3541
195.000000	69.335	155.3238
197.500000	69.282	155.2927
200.000000	69.246	155.2584
203.000000	69.225	155.2448
206.000000	69.221	155.2746
209.000000	69.220	155.3275
212.000000	69.209	155.3882
214.000000	69.194	155.4256
218.000000	69.151	155.4788
220.000000	69.126	155.4894
224.000000	69.072	155.5137
227.000000	69.031	155.6017
230.000000	68.989	155.7394
233.000000	68.947	155.8639
236.000000	68.908	155.9684
240.000000	68.867	156.1067
243.000000	68.847	156.2028
247.000000	68.822	156.2961
250.000000	68.799	156.3400
254.000000	68.763	156.3749
258.000000	68.726	156.3942
262.000000	68.696	156.4042
265.000000	68.678	156.4222
269.000000	68.656	156.4878
272.000000	68.640	156.5735
276.000000	68.614	156.7334
280.000000	68.581	156.9107
285.000000	68.538	157.0849
290.000000	68.501	157.1848
295.000000	68.477	157.2733
300.000000	68.464	157.4435
304.000000	68.452	157.6075
307.000000	68.445	157.7145
311.000000	68.438	157.8272
315.000000	68.437	157.9008
320.000000	68.443	157.9381
325.000000	68.449	157.9357
330.000000	68.452	157.9280
335.000000	68.454	157.9195
340.000000	68.454	157.9048
345.000000	68.451	157.9056
350.000000	68.447	157.9249
355.000000	68.448	157.9413
360.000000	68.460	157.9449
365.000000	68.481	157.9339
370.000000	68.501	157.8858
375.000000	68.515	157.7689
382.000000	68.526	157.5061
387.000000	68.530	157.3126
395.000000	68.533	157.0195
400.000000	68.533	156.8145
406.000000	68.532	156.5685
412.000000	68.533	156.3289
418.000000	68.535	156.1104
425.000000	68.531	155.8700
431.000000	68.528	155.6542
437.000000	68.526	155.4228
444.000000	68.521	155.1613
450.000000	68.517	154.9510
455.000000	68.514	154.7631
462.000000	68.507	154.4602
468.000000	68.501	154.1663
475.000000	68.502	153.8351
482.000000	68.513	153.5563
487.000000	68.522	153.3519
494.000000	68.529	153.0166
500.000000	68.528	152.6953
508.000000	68.528	152.2342
515.000000	68.533	151.8099
522.000000	68.536	151.3999
530.000000	68.528	150.9645
538.000000	68.510	150.5488
545.000000	68.490	150.1840
552.000000	68.471	149.8317
560.000000	68.452	149.5077
570.000000	68.434	149.2917
580.000000	68.420	149.2285
590.000000	68.399	149.2571
600.000000	68.365	149.3248
608.000000	68.335	149.3777
615.000000	68.311	149.4184
622.000000	68.292	149.4441
630.000000	68.272	149.4511
640.000000	68.244	149.4606
650.000000	68.206	149.4760
660.000000	68.152	149.4812
670.000000	68.086	149.5042
680.000000	68.013	149.5732
690.000000	67.934	149.6927
700.000000	67.846	149.8404
710.000000	67.746	149.9803
720.000000	67.632	150.1192
730.000000	67.510	150.2988
740.000000	67.383	150.5630
750.000000	67.251	150.9440
762.000000	67.080	151.6014
775.000000	66.887	152.5824
788.000000	66.697	153.7988
800.000000	66.533	155.0315
812.000000	66.383	156.3423
825.000000	66.236	157.9162
838.000000	66.108	159.6395
850.000000	66.012	161.3471
862.000000	65.940	163.1636
875.000000	65.886	165.2061
885.000000	65.862	166.8038
900.000000	65.858	169.1763
912.000000	65.879	170.9978
925.000000	65.920	172.8524
938.000000	65.968	174.5753
950.000000	66.015	176.0748
962.000000	66.070	177.5216
975.000000	66.141	179.0524
988.000000	66.220	-179.4478
1000.000000	66.293	-178.0970
1015.000000	66.380	-176.5029
1030.000000	66.460	-175.0099
1044.000000	66.526	-173.6626
1060.000000	66.596	-172.1501
1075.000000	66.659	-170.7378
1090.000000	66.720	-169.2988
1106.000000	66.783	-167.7471
1120.000000	66.839	-166.4014
1138.000000	66.915	-164.6877
1150.000000	66.966	-163.5496
1172.000000	67.065	-161.4456
1180.000000	67.103	-160.6686
1206.000000	67.243	-158.0776
1220.000000	67.331	-156.6199
1241.000000	67.481	-154.3289
1250.000000	67.554	-153.3090
1265.000000	67.689	-151.5732
1280.000000	67.843	-149.8285
1315.000000	68.242	-145.9656
1320.000000	68.297	-145.4556
1340.000000	68.497	-143.5381
1360.000000	68.652	-141.8397
1380.000000	68.762	-140.4019
1400.000000	68.850	-139.2375
1430.000000	69.015	-137.9606
1450.000000	69.177	-137.3300
1475.000000	69.429	-136.7315
1500.000000	69.712	-136.3746
1525.000000	70.005	-136.2031
1550.000000	70.291	-136.1357
1575.000000	70.558	-136.1272
1600.000000	70.810	-136.1461
1625.000000	71.055	-136.1623
1650.000000	71.300	-136.2205
1675.000000	71.551	-136.3467
1700.000000	71.801	-136.5065
1725.000000	72.045	-136.6955
1750.000000	72.281	-136.9234
1775.000000	72.514	-137.1816
1800.000000	72.742	-137.4824
1825.000000	72.971	-137.8409
1850.000000	73.203	-138.2679
1875.000000	73.433	-138.7757
1900.000000	73.659	-139.3801
1925.000000	73.879	-140.0743
1950.000000	74.089	-140.8385
1975.000000	74.289	-141.6404
2000.000000	74.479	-142.4461
2030.000000	74.693	-143.4117
2060.000000	74.896	-144.4261
2090.000000	75.090	-145.5214
2120.000000	75.272	-146.6395
2140.000000	75.388	-147.3647
2180.000000	75.601	-148.7876
2200.000000	75.700	-149.4870
2240.000000	75.887	-150.8585
2270.000000	76.025	-151.8389
2300.000000	76.164	-152.7615
2330.000000	76.307	-153.6485
2360.000000	76.454	-154.5220
2400.000000	76.664	-155.6916
2430.000000	76.835	-156.5853
2470.000000	77.073	-157.8379
2500.000000	77.253	-158.8757
2540.000000	77.487	-160.4203
2580.000000	77.706	-162.1152
2620.000000	77.907	-163.9105
2650.000000	78.043	-165.2946
2690.000000	78.210	-167.1629
2720.000000	78.326	-168.5667
2760.000000	78.472	-170.4256
2800.000000	78.608	-172.2707
2850.000000	78.769	-174.5647
2900.000000	78.920	-176.8716
2950.000000	79.060	-179.1456
3000.000000	79.186	178.6230
3040.000000	79.279	176.8099
3070.000000	79.346	175.4308
3110.000000	79.432	173.5833
3150.000000	79.516	171.7429
3200.000000	79.618	169.4692
3250.000000	79.715	167.2360
3300.000000	79.806	165.0468
3350.000000	79.889	162.8820
3400.000000	79.965	160.7101
3450.000000	80.034	158.5268
3500.000000	80.092	156.3530
3550.000000	80.139	154.2024
3600.000000	80.183	152.0645
3650.000000	80.230	149.9323
3700.000000	80.288	147.8071
3750.000000	80.360	145.6620
3820.000000	80.473	142.6073
3870.000000	80.555	140.4010
3950.000000	80.673	136.8520
4000.000000	80.740	134.6113
4060.000000	80.812	131.9073
4120.000000	80.870	129.1603
4180.000000	80.910	126.3377
4250.000000	80.932	122.9424
4310.000000	80.939	119.9483
4370.000000	80.942	116.8869
4440.000000	80.945	113.2083
4500.000000	80.953	109.9458
4550.000000	80.964	107.1446
4620.000000	80.976	103.0858
4680.000000	80.971	99.4710
4750.000000	80.931	95.1009
4820.000000	80.840	90.6073
4870.000000	80.735	87.3553
4940.000000	80.527	82.7913
5000.000000	80.290	78.9349
5080.000000	79.891	74.0422
5150.000000	79.466	70.1442
5220.000000	78.984	66.7396
5300.000000	78.388	63.6260
5380.000000	77.777	61.5993
5450.000000	77.259	61.0273
5520.000000	76.790	61.8303
5600.000000	76.339	64.3563
5700.000000	75.895	69.0654
5800.000000	75.555	74.4415
5900.000000	75.303	79.9642
6000.000000	75.119	85.5212
6080.000000	75.005	89.9992
6150.000000	74.922	93.9449
6220.000000	74.849	97.9194
6300.000000	74.781	102.4996
6400.000000	74.722	108.2832
6500.000000	74.700	114.1211
6600.000000	74.717	119.9921
6700.000000	74.776	125.8565
6800.000000	74.879	131.6731
6900.000000	75.030	137.4368
7000.000000	75.237	143.1713
7100.000000	75.517	148.8424
7200.000000	75.885	154.3192
7300.000000	76.345	159.4521
7400.000000	76.886	164.0664
7500.000000	77.495	167.9488
7620.000000	78.275	171.3842
7750.000000	79.074	173.3633
7880.000000	79.671	173.4517
8000.000000	79.925	172.1191
8120.000000	79.827	170.0155
8250.000000	79.312	167.7740
8380.000000	78.427	166.5490
8500.000000	77.375	166.9909
8620.000000	76.196	169.2477
8750.000000	74.881	173.7217
8850.000000	73.893	178.4248
9000.000000	72.492	-172.8845
9120.000000	71.450	-164.8232
9250.000000	70.403	-155.2426
9380.000000	69.441	-144.9686
9500.000000	68.634	-134.9838
9620.000000	67.910	-124.6306
9750.000000	67.213	-113.1045
9880.000000	66.600	-101.3124
10000.000000	66.104	-90.2178
10150.000000	65.567	-76.0939
10300.000000	65.113	-61.7168
10440.000000	64.755	-48.1172
10600.000000	64.421	-32.4085
10750.000000	64.180	-17.5602
10900.000000	64.012	-2.5945
11060.000000	63.918	13.5203
11200.000000	63.908	27.7088
11380.000000	63.985	46.0068
11500.000000	64.093	58.2628
11720.000000	64.427	80.9640
11800.000000	64.600	89.2902
12060.000000	65.377	116.2866
12200.000000	65.939	130.5587
12410.000000	66.962	151.2941
12500.000000	67.460	159.8224
12650.000000	68.355	173.3173
12800.000000	69.306	-174.4590
13150.000000	71.471	-154.0750
13200.000000	71.741	-152.4071
13400.000000	72.615	-149.3508
13600.000000	73.035	-151.6932
13800.000000	72.904	-157.3194
14000.000000	72.242	-163.2511
14300.000000	70.582	-168.3166
14500.000000	69.332	-168.0834
14750.000000	67.905	-164.0644
15000.000000	66.778	-157.1226
15250.000000	65.987	-148.6693
15500.000000	65.503	-139.9181
15750.000000	65.338	-131.9687
16000.000000	65.537	-125.9164
16250.000000	66.035	-122.6990
16500.000000	66.599	-122.7720
16750.000000	66.942	-125.7340
17000.000000	66.847	-130.3274
17250.000000	66.231	-134.8712
17500.000000	65.157	-137.8552
17750.000000	63.784	-138.3381
18000.000000	62.296	-136.0495
18250.000000	60.844	-131.2564
18500.000000	59.509	-124.4692
18750.000000	58.308	-116.1284
19000.000000	57.235	-106.5193
19250.000000	56.273	-95.9128
19500.000000	55.411	-84.8502
19750.000000	54.691	-74.7443
20000.000000	54.265	-68.4561
