* Measurement data measured by REW V5.31.3
* Source: Microphone (USB Sound Device        ), MICROPHONE (Master Volume), L, volume: 0.700
* Format: 256k Log Swept Sine, 1 sweep at -12.0 dBFS with no timing reference
* Dated: 29-Jan-2025 20:59:44
* REW Settings:
*  C-weighting compensation: Off
*  Target level: 75.0 dB
* Note: 
* Measurement: FKP ANC off O R
* Smoothing: 1/12 octave
* Frequency Step: 1/48 octave
* Start Frequency: 20.300 Hz
*
* Freq(Hz)	SPL(dB)	Phase(degrees)
20.299999	77.093	-168.0089
20.600000	77.116	-168.4414
20.900000	77.146	-168.9771
21.200001	77.177	-169.5471
21.400000	77.196	-169.9340
21.799999	77.226	-170.7106
22.000000	77.236	-171.0949
22.400000	77.250	-171.8438
22.700001	77.256	-172.3847
23.000000	77.262	-172.9131
23.299999	77.269	-173.4394
23.600000	77.278	-173.9752
24.000000	77.290	-174.7162
24.299999	77.297	-175.2909
24.700001	77.302	-176.0676
25.000000	77.303	-176.6447
25.400000	77.300	-177.3909
25.799999	77.297	-178.1029
26.200001	77.293	-178.7823
26.500000	77.291	-179.2747
26.900000	77.290	-179.9147
27.200001	77.288	179.6143
27.600000	77.286	178.9953
28.000000	77.284	178.3851
28.500000	77.278	177.6338
29.000000	77.271	176.8903
29.500000	77.262	176.1418
30.000000	77.253	175.3752
30.400000	77.244	174.7479
30.700001	77.235	174.2738
31.100000	77.221	173.6461
31.500000	77.205	173.0340
32.000000	77.183	172.3031
32.500000	77.160	171.6156
33.000000	77.135	170.9684
33.500000	77.109	170.3476
34.000000	77.082	169.7283
34.500000	77.057	169.0837
35.000000	77.032	168.4033
35.500000	77.004	167.7035
36.000000	76.973	167.0193
36.500000	76.941	166.3788
37.000000	76.909	165.7819
37.500000	76.876	165.2021
38.200001	76.825	164.3715
38.700001	76.782	163.7676
39.500000	76.710	162.8445
40.000000	76.667	162.3096
40.599998	76.615	161.6934
41.200001	76.559	161.0880
41.799999	76.499	160.4850
42.500000	76.434	159.7658
43.099998	76.387	159.1293
43.700001	76.345	158.5060
44.400002	76.299	157.8510
45.000000	76.254	157.3549
45.500000	76.210	156.9634
46.200001	76.140	156.4182
46.799999	76.079	155.9467
47.500000	76.015	155.3934
48.200001	75.959	154.8512
48.700001	75.920	154.4870
49.400002	75.862	154.0149
50.000000	75.805	153.6221
50.799999	75.715	153.0726
51.500000	75.625	152.5740
52.200001	75.532	152.0917
53.000000	75.430	151.5755
53.799999	75.337	151.0770
54.500000	75.260	150.6445
55.200001	75.183	150.2297
56.000000	75.093	149.7996
57.000000	74.981	149.3152
58.000000	74.874	148.8489
59.000000	74.767	148.4020
60.000000	74.651	147.9876
60.799999	74.554	147.6729
61.500000	74.469	147.4048
62.200001	74.387	147.1502
63.000000	74.294	146.8901
64.000000	74.182	146.6088
65.000000	74.073	146.3382
66.000000	73.968	146.0641
67.000000	73.864	145.8220
68.000000	73.756	145.6326
69.000000	73.643	145.4614
70.000000	73.527	145.2738
71.000000	73.412	145.0762
72.000000	73.302	144.8904
73.000000	73.200	144.7297
74.000000	73.102	144.6091
75.000000	73.007	144.5472
76.199997	72.890	144.5449
77.500000	72.762	144.5857
78.800003	72.638	144.6312
80.000000	72.526	144.6836
81.199997	72.419	144.7628
82.500000	72.310	144.8499
83.800003	72.207	144.9112
85.000000	72.113	144.9604
86.199997	72.017	145.0280
87.500000	71.914	145.1479
88.500000	71.839	145.2731
90.000000	71.728	145.4702
91.199997	71.639	145.6367
92.500000	71.547	145.8418
93.800003	71.461	146.0708
95.000000	71.388	146.2994
96.199997	71.320	146.5518
97.500000	71.250	146.8471
98.800003	71.184	147.1458
100.000000	71.125	147.4042
101.500000	71.057	147.6718
103.000000	70.994	147.8659
104.400002	70.936	148.0034
106.000000	70.869	148.1490
107.500000	70.811	148.2837
109.000000	70.760	148.4290
110.599998	70.711	148.6155
112.000000	70.674	148.8070
113.800003	70.633	149.0566
115.000000	70.611	149.1964
117.199997	70.571	149.3510
118.000000	70.555	149.3887
120.599998	70.501	149.5117
122.000000	70.470	149.5574
124.099998	70.417	149.6353
125.000000	70.394	149.6883
126.500000	70.359	149.7811
128.000000	70.330	149.8374
131.500000	70.272	149.8718
132.000000	70.264	149.8791
134.000000	70.233	149.9059
136.000000	70.198	149.9384
138.000000	70.158	150.0029
140.000000	70.122	150.0938
143.000000	70.072	150.2690
145.000000	70.048	150.4052
147.500000	70.043	150.4680
150.000000	70.056	150.3521
152.500000	70.067	150.1696
155.000000	70.066	149.9987
157.500000	70.053	149.8572
160.000000	70.031	149.7221
162.500000	70.004	149.5525
165.000000	69.980	149.3806
167.500000	69.959	149.2310
170.000000	69.937	149.0677
172.500000	69.910	148.8898
175.000000	69.877	148.7557
177.500000	69.840	148.6514
180.000000	69.800	148.5204
182.500000	69.752	148.3551
185.000000	69.694	148.1908
187.500000	69.626	148.0460
190.000000	69.552	147.9039
192.500000	69.479	147.7563
195.000000	69.418	147.6358
197.500000	69.371	147.5674
200.000000	69.337	147.5304
203.000000	69.312	147.4609
206.000000	69.300	147.3325
209.000000	69.292	147.1813
212.000000	69.279	147.0421
214.000000	69.268	146.9659
218.000000	69.235	146.8582
220.000000	69.212	146.8331
224.000000	69.159	146.8435
227.000000	69.117	146.8541
230.000000	69.077	146.8345
233.000000	69.039	146.8010
236.000000	69.006	146.7614
240.000000	68.964	146.6909
243.000000	68.934	146.6281
247.000000	68.899	146.5703
250.000000	68.876	146.5500
254.000000	68.844	146.5329
258.000000	68.808	146.5026
262.000000	68.769	146.4196
265.000000	68.742	146.3293
269.000000	68.713	146.1945
272.000000	68.693	146.1058
276.000000	68.669	146.0370
280.000000	68.647	146.0031
285.000000	68.616	145.9353
290.000000	68.582	145.8326
295.000000	68.552	145.7512
300.000000	68.531	145.6930
304.000000	68.518	145.6477
307.000000	68.512	145.6179
311.000000	68.508	145.5720
315.000000	68.506	145.4998
320.000000	68.506	145.3595
325.000000	68.509	145.2018
330.000000	68.513	145.0398
335.000000	68.516	144.8677
340.000000	68.516	144.6868
345.000000	68.513	144.4952
350.000000	68.510	144.2987
355.000000	68.507	144.1075
360.000000	68.507	143.9181
365.000000	68.513	143.6929
370.000000	68.525	143.3936
375.000000	68.541	143.0497
382.000000	68.561	142.5665
387.000000	68.574	142.1976
395.000000	68.585	141.6025
400.000000	68.585	141.2819
406.000000	68.577	140.9381
412.000000	68.567	140.6338
418.000000	68.563	140.4024
425.000000	68.564	140.2527
431.000000	68.563	140.1968
437.000000	68.562	140.1523
444.000000	68.555	140.0703
450.000000	68.546	139.9879
455.000000	68.540	139.9221
462.000000	68.537	139.8411
468.000000	68.540	139.7867
475.000000	68.546	139.7062
482.000000	68.555	139.5929
487.000000	68.564	139.5047
494.000000	68.576	139.3697
500.000000	68.587	139.2256
508.000000	68.602	139.0094
515.000000	68.604	138.8530
522.000000	68.593	138.7260
530.000000	68.575	138.5754
538.000000	68.558	138.3927
545.000000	68.544	138.2138
552.000000	68.530	138.0581
560.000000	68.512	137.9245
570.000000	68.484	137.7930
580.000000	68.452	137.6853
590.000000	68.427	137.5975
600.000000	68.410	137.5022
608.000000	68.392	137.4078
615.000000	68.371	137.3018
622.000000	68.345	137.1808
630.000000	68.311	137.0503
640.000000	68.266	136.9205
650.000000	68.215	136.7943
660.000000	68.155	136.6542
670.000000	68.092	136.5342
680.000000	68.027	136.4207
690.000000	67.958	136.2892
700.000000	67.877	136.1735
710.000000	67.782	136.1241
720.000000	67.677	136.1204
730.000000	67.565	136.1419
740.000000	67.446	136.2442
750.000000	67.317	136.4734
762.000000	67.151	136.8676
775.000000	66.961	137.4575
788.000000	66.769	138.2708
800.000000	66.600	139.2224
812.000000	66.446	140.3459
825.000000	66.297	141.7156
838.000000	66.167	143.1929
850.000000	66.067	144.6575
862.000000	65.989	146.2179
875.000000	65.933	147.9630
885.000000	65.910	149.3014
900.000000	65.905	151.2596
912.000000	65.919	152.7587
925.000000	65.948	154.3132
938.000000	65.994	155.8233
950.000000	66.046	157.1791
962.000000	66.099	158.4627
975.000000	66.164	159.7345
988.000000	66.241	160.8472
1000.000000	66.317	161.6966
1015.000000	66.404	162.5032
1030.000000	66.481	163.0490
1044.000000	66.547	163.3668
1060.000000	66.617	163.5863
1075.000000	66.680	163.7314
1090.000000	66.741	163.8842
1106.000000	66.801	164.0657
1120.000000	66.855	164.2177
1138.000000	66.933	164.3818
1150.000000	66.990	164.4687
1172.000000	67.091	164.6235
1180.000000	67.126	164.6925
1206.000000	67.248	164.9902
1220.000000	67.327	165.2091
1241.000000	67.473	165.6033
1250.000000	67.548	165.7840
1265.000000	67.689	166.0898
1280.000000	67.849	166.3895
1315.000000	68.241	166.9329
1320.000000	68.293	166.9816
1340.000000	68.474	167.0913
1360.000000	68.604	167.0954
1380.000000	68.698	167.0780
1400.000000	68.792	167.0976
1430.000000	68.997	167.0719
1450.000000	69.183	166.8841
1475.000000	69.448	166.4004
1500.000000	69.727	165.7007
1525.000000	70.012	164.8893
1550.000000	70.293	164.0028
1575.000000	70.555	163.0749
1600.000000	70.806	162.1200
1625.000000	71.060	161.1224
1650.000000	71.319	160.0554
1675.000000	71.577	158.9294
1700.000000	71.824	157.7712
1725.000000	72.057	156.5788
1750.000000	72.279	155.3697
1775.000000	72.500	154.1251
1800.000000	72.724	152.8275
1825.000000	72.953	151.4832
1850.000000	73.185	150.0887
1875.000000	73.414	148.6283
1900.000000	73.638	147.0889
1925.000000	73.855	145.4708
1950.000000	74.063	143.7776
1975.000000	74.262	142.0273
2000.000000	74.450	140.2533
2030.000000	74.660	138.1123
2060.000000	74.858	135.9307
2090.000000	75.054	133.6981
2120.000000	75.247	131.4446
2140.000000	75.369	129.9408
2180.000000	75.585	126.9479
2200.000000	75.682	125.4703
2240.000000	75.869	122.5934
2270.000000	76.007	120.4867
2300.000000	76.146	118.4077
2330.000000	76.289	116.3686
2360.000000	76.438	114.3711
2400.000000	76.649	111.7498
2430.000000	76.818	109.7794
2470.000000	77.058	107.0576
2500.000000	77.242	104.8912
2540.000000	77.481	101.8160
2580.000000	77.703	98.5726
2620.000000	77.906	95.2403
2650.000000	78.046	92.7219
2690.000000	78.217	89.3482
2720.000000	78.335	86.8000
2760.000000	78.484	83.3823
2800.000000	78.628	79.9692
2850.000000	78.799	75.7230
2900.000000	78.954	71.4909
2950.000000	79.095	67.3000
3000.000000	79.223	63.1246
3040.000000	79.315	59.7514
3070.000000	79.378	57.1955
3110.000000	79.460	53.7786
3150.000000	79.541	50.3838
3200.000000	79.642	46.1786
3250.000000	79.739	42.0206
3300.000000	79.832	37.9113
3350.000000	79.918	33.8233
3400.000000	79.997	29.7321
3450.000000	80.067	25.6390
3500.000000	80.129	21.5459
3550.000000	80.186	17.4406
3600.000000	80.240	13.3255
3650.000000	80.294	9.2178
3700.000000	80.354	5.1290
3750.000000	80.422	1.0596
3820.000000	80.524	-4.6093
3870.000000	80.599	-8.5769
3950.000000	80.715	-14.3669
4000.000000	80.785	-17.2795
4060.000000	80.862	-19.8708
4120.000000	80.924	-21.7539
4180.000000	80.967	-23.3276
4250.000000	80.996	-25.0625
4310.000000	81.004	-26.5529
4370.000000	81.005	-28.0729
4440.000000	81.012	-29.8892
4500.000000	81.027	-31.4954
4550.000000	81.044	-32.8845
4620.000000	81.064	-34.9263
4680.000000	81.064	-36.7762
4750.000000	81.028	-39.0425
4820.000000	80.940	-41.3936
4870.000000	80.838	-43.0962
4940.000000	80.634	-45.4547
5000.000000	80.401	-47.3746
5080.000000	80.005	-49.6071
5150.000000	79.579	-51.0870
5220.000000	79.095	-51.9833
5300.000000	78.500	-52.1950
5380.000000	77.900	-51.5181
5450.000000	77.402	-50.2593
5520.000000	76.952	-48.5279
5600.000000	76.515	-46.1885
5700.000000	76.082	-42.9912
5800.000000	75.752	-39.6593
5900.000000	75.507	-36.2776
6000.000000	75.325	-32.8636
6080.000000	75.209	-30.0963
6150.000000	75.123	-27.6359
6220.000000	75.047	-25.1332
6300.000000	74.975	-22.2222
6400.000000	74.914	-18.5255
6500.000000	74.889	-14.7976
6600.000000	74.902	-11.0546
6700.000000	74.960	-7.3077
6800.000000	75.068	-3.5928
6900.000000	75.225	0.0881
7000.000000	75.437	3.7458
7100.000000	75.719	7.3206
7200.000000	76.087	10.6918
7300.000000	76.544	13.6904
7400.000000	77.087	16.1313
7500.000000	77.704	17.8361
7620.000000	78.489	18.6816
7750.000000	79.278	17.8935
7880.000000	79.852	15.2865
8000.000000	80.078	11.5603
8120.000000	79.951	7.1702
8250.000000	79.404	2.5597
8380.000000	78.491	-0.9784
8500.000000	77.420	-2.6954
8620.000000	76.233	-2.6593
8750.000000	74.918	-0.6682
8850.000000	73.934	2.0713
9000.000000	72.540	7.7405
9120.000000	71.502	13.3441
9250.000000	70.459	20.2393
9380.000000	69.504	27.7685
9500.000000	68.709	35.0294
9620.000000	68.000	42.1791
9750.000000	67.319	49.1019
9880.000000	66.712	54.4317
10000.000000	66.213	57.8299
10150.000000	65.673	60.7267
10300.000000	65.222	62.9315
10440.000000	64.871	64.7815
10600.000000	64.547	66.8428
10750.000000	64.316	68.7465
10900.000000	64.161	70.6059
11060.000000	64.080	72.5438
11200.000000	64.075	74.1984
11380.000000	64.155	76.2566
11500.000000	64.266	77.5905
11720.000000	64.619	79.9058
11800.000000	64.801	80.6720
12060.000000	65.610	82.6634
12200.000000	66.185	83.2541
12410.000000	67.234	83.1789
12500.000000	67.747	82.6839
12650.000000	68.668	81.0710
12800.000000	69.641	78.2719
13150.000000	71.813	65.8415
13200.000000	72.075	63.3214
13400.000000	72.896	51.4988
13600.000000	73.239	37.6204
13800.000000	73.018	23.1793
14000.000000	72.277	9.8262
14300.000000	70.554	-5.7313
14500.000000	69.296	-12.7273
14750.000000	67.879	-18.3033
15000.000000	66.781	-21.4670
15250.000000	66.022	-23.3713
15500.000000	65.569	-25.0895
15750.000000	65.428	-27.5937
16000.000000	65.641	-31.7988
16250.000000	66.150	-38.5269
16500.000000	66.728	-48.0679
16750.000000	67.079	-59.9786
17000.000000	66.980	-73.1909
17250.000000	66.359	-86.2457
17500.000000	65.282	-97.8312
17750.000000	63.911	-107.1948
18000.000000	62.431	-114.1615
18250.000000	60.990	-118.9652
18500.000000	59.669	-121.9870
18750.000000	58.482	-123.5829
19000.000000	57.422	-124.0089
19250.000000	56.473	-123.3865
19500.000000	55.624	-121.8862
19750.000000	54.927	-119.9951
20000.000000	54.526	-118.6389
