* Measurement data measured by REW V5.30 beta 1
* Source: Microphone (USB Audio Device), MICROPHONE (Master Volume), R, volume: 0.250
* Format: 256k Log Swept Sine, 1 sweep at -12.0 dBFS with no timing reference
* Dated: 05-Nov-2023 22:59:52
* REW Settings:
*  C-weighting compensation: Off
*  Target level: 75.0 dB
* Note: 
* Measurement: Haylou W1 ANC L
* Smoothing: 1/12 octave
* Frequency Step: 1/48 octave
* Start Frequency: 20.300 Hz
*
* Freq(Hz)	SPL(dB)	Phase(degrees)
20.299999	91.233	-70.3799
20.600000	91.383	-71.3460
20.900000	91.577	-72.5489
21.200001	91.792	-73.8705
21.400000	91.942	-74.8140
21.799999	92.243	-76.8759
22.000000	92.390	-77.9934
22.400000	92.666	-80.3500
22.700001	92.855	-82.1537
23.000000	93.031	-83.9215
23.299999	93.200	-85.6142
23.600000	93.365	-87.2225
24.000000	93.587	-89.2710
24.299999	93.750	-90.7776
24.700001	93.958	-92.7928
25.000000	94.100	-94.3126
25.400000	94.267	-96.3181
25.799999	94.414	-98.2510
26.200001	94.552	-100.0806
26.500000	94.657	-101.3901
26.900000	94.804	-103.0828
27.200001	94.920	-104.3360
27.600000	95.079	-106.0092
28.000000	95.238	-107.6947
28.500000	95.429	-109.8161
29.000000	95.608	-111.9488
29.500000	95.776	-114.0937
30.000000	95.933	-116.2462
30.400000	96.050	-117.9607
30.700001	96.133	-119.2325
31.100000	96.238	-120.9007
31.500000	96.339	-122.5364
32.000000	96.463	-124.5540
32.500000	96.584	-126.5796
33.000000	96.695	-128.6467
33.500000	96.792	-130.7579
34.000000	96.869	-132.8856
34.500000	96.924	-134.9928
35.000000	96.958	-137.0559
35.500000	96.973	-139.0717
36.000000	96.975	-141.0526
36.500000	96.968	-143.0177
37.000000	96.954	-144.9829
37.500000	96.935	-146.9522
38.200001	96.897	-149.6891
38.700001	96.864	-151.6012
39.500000	96.804	-154.5700
40.000000	96.765	-156.3869
40.599998	96.714	-158.5415
41.200001	96.656	-160.6525
41.799999	96.592	-162.6929
42.500000	96.510	-164.9694
43.099998	96.433	-166.8383
43.700001	96.354	-168.6402
44.400002	96.264	-170.6646
45.000000	96.192	-172.3319
45.500000	96.134	-173.6659
46.200001	96.050	-175.4365
46.799999	95.976	-176.8732
47.500000	95.889	-178.4967
48.200001	95.804	179.8989
48.700001	95.748	178.7663
49.400002	95.677	177.2275
50.000000	95.617	175.9745
50.799999	95.531	174.3997
51.500000	95.446	173.0851
52.200001	95.357	171.8062
53.000000	95.255	170.3846
53.799999	95.161	169.0138
54.500000	95.084	167.8642
55.200001	95.011	166.7708
56.000000	94.935	165.5836
57.000000	94.847	164.1417
58.000000	94.752	162.7339
59.000000	94.643	161.3978
60.000000	94.525	160.0951
60.799999	94.432	159.0501
61.500000	94.354	158.1431
62.200001	94.283	157.2505
63.000000	94.205	156.2511
64.000000	94.107	155.0370
65.000000	94.007	153.8517
66.000000	93.909	152.6829
67.000000	93.814	151.5441
68.000000	93.721	150.4597
69.000000	93.627	149.4434
70.000000	93.525	148.4804
71.000000	93.412	147.5462
72.000000	93.294	146.6221
73.000000	93.186	145.6808
74.000000	93.087	144.7121
75.000000	92.991	143.7393
76.199997	92.867	142.6209
77.500000	92.730	141.5047
78.800003	92.597	140.4135
80.000000	92.476	139.4015
81.199997	92.356	138.4181
82.500000	92.230	137.3848
83.800003	92.111	136.3684
85.000000	92.008	135.4514
86.199997	91.905	134.5570
87.500000	91.789	133.6425
88.500000	91.695	132.9945
90.000000	91.552	132.0454
91.199997	91.439	131.2705
92.500000	91.314	130.4563
93.800003	91.183	129.7059
95.000000	91.064	129.0760
96.199997	90.954	128.5013
97.500000	90.844	127.9069
98.800003	90.737	127.3013
100.000000	90.638	126.7296
101.500000	90.511	126.0082
103.000000	90.379	125.2697
104.400002	90.257	124.5799
106.000000	90.125	123.8435
107.500000	90.001	123.2240
109.000000	89.872	122.6628
110.599998	89.732	122.1089
112.000000	89.610	121.6343
113.800003	89.457	121.0215
115.000000	89.358	120.6012
117.199997	89.177	119.8092
118.000000	89.111	119.5330
120.599998	88.893	118.7018
122.000000	88.777	118.2758
124.099998	88.604	117.6826
125.000000	88.532	117.4625
126.500000	88.416	117.1501
128.000000	88.305	116.8771
131.500000	88.059	116.1724
132.000000	88.023	116.0558
134.000000	87.882	115.5715
136.000000	87.746	115.1027
138.000000	87.610	114.6595
140.000000	87.473	114.2317
143.000000	87.283	113.7154
145.000000	87.164	113.4725
147.500000	86.999	113.2531
150.000000	86.824	113.0281
152.500000	86.674	112.7821
155.000000	86.546	112.5883
157.500000	86.421	112.4355
160.000000	86.296	112.2979
162.500000	86.179	112.2139
165.000000	86.067	112.1178
167.500000	85.952	111.9120
170.000000	85.835	111.6865
172.500000	85.728	111.5478
175.000000	85.628	111.4539
177.500000	85.532	111.3519
180.000000	85.439	111.2737
182.500000	85.353	111.2451
185.000000	85.270	111.2627
187.500000	85.177	111.2916
190.000000	85.072	111.2935
192.500000	84.959	111.2644
195.000000	84.851	111.2015
197.500000	84.764	111.1096
200.000000	84.702	110.9926
203.000000	84.662	110.8028
206.000000	84.647	110.6095
209.000000	84.629	110.4202
212.000000	84.589	110.2322
214.000000	84.555	110.1346
218.000000	84.475	109.9843
220.000000	84.433	109.9141
224.000000	84.342	109.8074
227.000000	84.270	109.7548
230.000000	84.202	109.7012
233.000000	84.151	109.6573
236.000000	84.123	109.6415
240.000000	84.106	109.6397
243.000000	84.099	109.5995
247.000000	84.088	109.4903
250.000000	84.078	109.3344
254.000000	84.070	108.9968
258.000000	84.069	108.6058
262.000000	84.069	108.1764
265.000000	84.063	107.8585
269.000000	84.043	107.4846
272.000000	84.020	107.2361
276.000000	83.986	106.9371
280.000000	83.956	106.6708
285.000000	83.931	106.3437
290.000000	83.912	105.9419
295.000000	83.898	105.5471
300.000000	83.882	105.1500
304.000000	83.858	104.7743
307.000000	83.833	104.4750
311.000000	83.800	104.0826
315.000000	83.772	103.7243
320.000000	83.744	103.3362
325.000000	83.731	102.9040
330.000000	83.737	102.4025
335.000000	83.746	101.9373
340.000000	83.744	101.5715
345.000000	83.732	101.2735
350.000000	83.715	101.0412
355.000000	83.696	100.8073
360.000000	83.684	100.5238
365.000000	83.682	100.2021
370.000000	83.683	99.8724
375.000000	83.686	99.5882
382.000000	83.698	99.2759
387.000000	83.706	99.0680
395.000000	83.716	98.6436
400.000000	83.731	98.3264
406.000000	83.753	97.9900
412.000000	83.767	97.7434
418.000000	83.774	97.5641
425.000000	83.781	97.2688
431.000000	83.796	96.9018
437.000000	83.822	96.4864
444.000000	83.866	96.0260
450.000000	83.918	95.6181
455.000000	83.970	95.2014
462.000000	84.043	94.5113
468.000000	84.095	93.9078
475.000000	84.147	93.2359
482.000000	84.201	92.5544
487.000000	84.244	92.0423
494.000000	84.312	91.2762
500.000000	84.373	90.5529
508.000000	84.451	89.5500
515.000000	84.511	88.6833
522.000000	84.563	87.8220
530.000000	84.620	86.8058
538.000000	84.684	85.6944
545.000000	84.744	84.6329
552.000000	84.804	83.5376
560.000000	84.860	82.3557
570.000000	84.905	81.0498
580.000000	84.947	79.9096
590.000000	84.992	78.9294
600.000000	85.036	78.0264
608.000000	85.064	77.2935
615.000000	85.084	76.6350
622.000000	85.104	75.9701
630.000000	85.126	75.2025
640.000000	85.149	74.1918
650.000000	85.157	73.0763
660.000000	85.145	71.9176
670.000000	85.126	70.8165
680.000000	85.118	69.7884
690.000000	85.131	68.7921
700.000000	85.161	67.8283
710.000000	85.188	66.8988
720.000000	85.203	66.0028
730.000000	85.211	65.1555
740.000000	85.219	64.4108
750.000000	85.222	63.7413
762.000000	85.216	62.9475
775.000000	85.200	62.1446
788.000000	85.188	61.4790
800.000000	85.179	60.9977
812.000000	85.174	60.5755
825.000000	85.173	60.1405
838.000000	85.177	59.6946
850.000000	85.181	59.2015
862.000000	85.182	58.6891
875.000000	85.184	58.2010
885.000000	85.189	57.8696
900.000000	85.207	57.4089
912.000000	85.225	57.0393
925.000000	85.248	56.6357
938.000000	85.279	56.2504
950.000000	85.315	55.8913
962.000000	85.353	55.5053
975.000000	85.397	55.0165
988.000000	85.445	54.4140
1000.000000	85.490	53.7966
1015.000000	85.539	53.0610
1030.000000	85.580	52.3717
1044.000000	85.619	51.7303
1060.000000	85.665	50.9515
1075.000000	85.708	50.1931
1090.000000	85.753	49.5297
1106.000000	85.812	48.9827
1120.000000	85.875	48.5706
1138.000000	85.965	48.0095
1150.000000	86.028	47.6056
1172.000000	86.141	46.8251
1180.000000	86.182	46.5324
1206.000000	86.320	45.6013
1220.000000	86.404	45.0973
1241.000000	86.545	44.3309
1250.000000	86.611	44.0098
1265.000000	86.731	43.4937
1280.000000	86.859	42.9980
1315.000000	87.138	41.8135
1320.000000	87.173	41.6371
1340.000000	87.295	40.9077
1360.000000	87.376	40.1169
1380.000000	87.415	39.2858
1400.000000	87.443	38.4485
1430.000000	87.545	37.1362
1450.000000	87.668	36.1209
1475.000000	87.861	34.5492
1500.000000	88.072	32.5901
1525.000000	88.304	30.3925
1550.000000	88.550	28.1604
1575.000000	88.806	25.9618
1600.000000	89.071	23.7665
1625.000000	89.335	21.5257
1650.000000	89.599	19.3097
1675.000000	89.873	17.1607
1700.000000	90.152	15.0135
1725.000000	90.421	12.7720
1750.000000	90.685	10.4580
1775.000000	90.953	8.1249
1800.000000	91.220	5.7645
1825.000000	91.485	3.3675
1850.000000	91.746	0.9005
1875.000000	91.998	-1.6527
1900.000000	92.239	-4.2553
1925.000000	92.474	-6.8715
1950.000000	92.709	-9.5070
1975.000000	92.940	-12.2101
2000.000000	93.169	-15.0256
2030.000000	93.441	-18.5717
2060.000000	93.712	-22.2635
2090.000000	93.975	-26.0869
2120.000000	94.219	-30.0217
2140.000000	94.369	-32.6718
2180.000000	94.634	-37.9200
2200.000000	94.748	-40.5223
2240.000000	94.934	-45.8361
2270.000000	95.032	-50.0336
2300.000000	95.101	-54.4394
2330.000000	95.141	-58.9893
2360.000000	95.151	-63.6033
2400.000000	95.116	-69.6848
2430.000000	95.060	-74.0552
2470.000000	94.958	-79.4661
2500.000000	94.866	-83.1511
2540.000000	94.724	-87.5549
2580.000000	94.568	-91.3998
2620.000000	94.410	-94.7158
2650.000000	94.299	-96.9309
2690.000000	94.162	-99.6987
2720.000000	94.069	-101.7787
2760.000000	93.953	-104.6879
2800.000000	93.855	-107.7608
2850.000000	93.768	-111.8248
2900.000000	93.711	-116.2531
2950.000000	93.672	-121.0215
3000.000000	93.653	-125.8511
3040.000000	93.653	-129.4887
3070.000000	93.658	-131.9861
3110.000000	93.673	-134.9222
3150.000000	93.698	-137.4352
3200.000000	93.717	-140.3074
3250.000000	93.710	-143.3188
3300.000000	93.661	-146.7620
3350.000000	93.560	-150.6363
3400.000000	93.405	-154.6719
3450.000000	93.199	-158.6194
3500.000000	92.939	-162.3556
3550.000000	92.636	-165.8269
3600.000000	92.307	-169.0223
3650.000000	91.980	-171.9506
3700.000000	91.684	-174.5953
3750.000000	91.436	-176.9101
3820.000000	91.175	-179.6585
3870.000000	91.038	178.6025
3950.000000	90.855	176.1010
4000.000000	90.740	174.6403
4060.000000	90.586	172.6899
4120.000000	90.413	170.3339
4180.000000	90.240	167.7336
4250.000000	90.052	164.7618
4310.000000	89.920	162.5108
4370.000000	89.835	160.5016
4440.000000	89.810	157.9393
4500.000000	89.867	155.1241
4550.000000	89.975	152.1971
4620.000000	90.205	147.2488
4680.000000	90.434	142.3906
4750.000000	90.668	136.1764
4820.000000	90.802	129.4149
4870.000000	90.813	124.2802
4940.000000	90.703	116.8376
5000.000000	90.501	110.5022
5080.000000	90.100	102.6109
5150.000000	89.650	96.4945
5220.000000	89.134	91.2494
5300.000000	88.500	86.4404
5380.000000	87.848	82.6941
5450.000000	87.286	79.9893
5520.000000	86.762	77.7693
5600.000000	86.251	75.9133
5700.000000	85.786	74.5209
5800.000000	85.524	73.5302
5900.000000	85.446	72.2781
6000.000000	85.512	70.7961
6080.000000	85.638	69.7462
6150.000000	85.789	69.0432
6220.000000	85.978	68.4807
6300.000000	86.241	67.8043
6400.000000	86.644	66.5726
6500.000000	87.153	64.7178
6600.000000	87.782	62.0719
6700.000000	88.520	58.2360
6800.000000	89.309	52.6599
6900.000000	90.059	45.0590
7000.000000	90.679	35.7212
7100.000000	91.097	25.2637
7200.000000	91.254	14.3178
7300.000000	91.127	3.4726
7400.000000	90.727	-6.7789
7500.000000	90.093	-16.0865
7620.000000	89.112	-25.6130
7750.000000	87.910	-33.3798
7880.000000	86.676	-38.0910
8000.000000	85.571	-40.0320
8120.000000	84.539	-40.4805
8250.000000	83.543	-39.8892
8380.000000	82.728	-38.3479
8500.000000	82.163	-36.4055
8620.000000	81.773	-34.3535
8750.000000	81.522	-32.3543
8850.000000	81.429	-30.9158
9000.000000	81.412	-28.3438
9120.000000	81.480	-25.6085
9250.000000	81.632	-22.0567
9380.000000	81.871	-18.6279
9500.000000	82.169	-16.2947
9620.000000	82.551	-14.8280
9750.000000	83.061	-13.8314
9880.000000	83.662	-13.0361
10000.000000	84.295	-12.2201
10150.000000	85.176	-11.1227
10300.000000	86.137	-10.0457
10440.000000	87.100	-9.0154
10600.000000	88.260	-8.0247
10750.000000	89.375	-7.6249
10900.000000	90.471	-7.9705
11060.000000	91.550	-9.1938
11200.000000	92.365	-10.6857
11380.000000	93.189	-12.3478
11500.000000	93.600	-12.8754
11720.000000	94.138	-12.1860
11800.000000	94.294	-11.3617
12060.000000	94.841	-6.4186
12200.000000	95.242	-2.9529
12410.000000	95.996	0.6799
12500.000000	96.336	0.8722
12650.000000	96.838	-1.2037
12800.000000	97.141	-6.2173
13150.000000	96.415	-24.6194
13200.000000	96.123	-27.2632
13400.000000	94.537	-36.0487
13600.000000	92.472	-40.6914
13800.000000	90.220	-40.5703
14000.000000	88.054	-36.0657
14300.000000	85.367	-23.0027
14500.000000	84.078	-12.1064
14750.000000	83.025	1.4904
15000.000000	82.523	14.4818
15250.000000	82.509	27.3379
15500.000000	82.930	39.7458
15750.000000	83.724	49.6035
16000.000000	84.705	54.3265
16250.000000	85.504	52.9129
16500.000000	85.750	46.4992
16750.000000	85.303	37.7667
17000.000000	84.314	29.6798
17250.000000	82.994	23.9702
17500.000000	81.504	21.1601
17750.000000	80.151	21.0956
18000.000000	79.301	22.7897
18250.000000	79.030	25.0483
18500.000000	79.116	26.8742
18750.000000	79.266	27.1224
19000.000000	79.275	25.2842
19250.000000	79.043	22.4543
19500.000000	78.567	20.0049
19750.000000	77.974	18.5207
20000.000000	77.550	17.9669
