* Measurement data measured by REW V5.31.3
* Source: Microphone (6- USB Sound Device        ), MICROPHONE (Master Volume), L, volume: 0.700
* Format: 256k Log Swept Sine, 1 sweep at -12.0 dBFS with no timing reference
* Dated: 04-Mar-2025 19:22:04
* REW Settings:
*  C-weighting compensation: Off
*  Target level: 75.0 dB
* Note: 
* Measurement: HFBP4 V
* Smoothing: 1/12 octave
* Frequency Step: 1/48 octave
* Start Frequency: 20.300 Hz
*
* Freq(Hz)	SPL(dB)	Phase(degrees)
20.299999	82.425	-26.9190
20.600000	82.385	-26.8396
20.900000	82.333	-26.7470
21.200001	82.277	-26.6575
21.400000	82.240	-26.6020
21.799999	82.168	-26.4995
22.000000	82.134	-26.4512
22.400000	82.071	-26.3595
22.700001	82.029	-26.2961
23.000000	81.989	-26.2392
23.299999	81.953	-26.1898
23.600000	81.917	-26.1472
24.000000	81.871	-26.0976
24.299999	81.836	-26.0636
24.700001	81.793	-26.0226
25.000000	81.764	-25.9977
25.400000	81.731	-25.9777
25.799999	81.702	-25.9761
26.200001	81.675	-25.9906
26.500000	81.655	-26.0079
26.900000	81.629	-26.0347
27.200001	81.610	-26.0571
27.600000	81.586	-26.0949
28.000000	81.565	-26.1518
28.500000	81.543	-26.2632
29.000000	81.520	-26.4194
29.500000	81.494	-26.5997
30.000000	81.468	-26.7792
30.400000	81.448	-26.9169
30.700001	81.433	-27.0210
31.100000	81.415	-27.1709
31.500000	81.398	-27.3434
32.000000	81.378	-27.5959
32.500000	81.356	-27.8795
33.000000	81.331	-28.1781
33.500000	81.305	-28.4826
34.000000	81.277	-28.7946
34.500000	81.248	-29.1193
35.000000	81.217	-29.4606
35.500000	81.182	-29.8187
36.000000	81.145	-30.1887
36.500000	81.106	-30.5608
37.000000	81.067	-30.9237
37.500000	81.025	-31.2701
38.200001	80.963	-31.7277
38.700001	80.913	-32.0396
39.500000	80.826	-32.5208
40.000000	80.767	-32.8167
40.599998	80.695	-33.1728
41.200001	80.622	-33.5242
41.799999	80.550	-33.8573
42.500000	80.467	-34.2128
43.099998	80.393	-34.4882
43.700001	80.316	-34.7302
44.400002	80.223	-34.9641
45.000000	80.143	-35.1361
45.500000	80.075	-35.2707
46.200001	79.975	-35.4406
46.799999	79.886	-35.5481
47.500000	79.784	-35.6148
48.200001	79.689	-35.6308
48.700001	79.627	-35.6222
49.400002	79.546	-35.5937
50.000000	79.477	-35.5591
50.799999	79.377	-35.4859
51.500000	79.285	-35.3716
52.200001	79.193	-35.2065
53.000000	79.094	-34.9890
53.799999	78.998	-34.7681
54.500000	78.917	-34.5659
55.200001	78.841	-34.3416
56.000000	78.760	-34.0525
57.000000	78.664	-33.6436
58.000000	78.573	-33.1888
59.000000	78.493	-32.7133
60.000000	78.425	-32.2368
60.799999	78.376	-31.8417
61.500000	78.336	-31.4757
62.200001	78.297	-31.0954
63.000000	78.256	-30.6568
64.000000	78.209	-30.1153
65.000000	78.166	-29.5600
66.000000	78.131	-28.9624
67.000000	78.105	-28.3377
68.000000	78.085	-27.7133
69.000000	78.062	-27.0981
70.000000	78.039	-26.4940
71.000000	78.023	-25.9106
72.000000	78.019	-25.3574
73.000000	78.022	-24.8138
74.000000	78.028	-24.2526
75.000000	78.036	-23.6841
76.199997	78.048	-23.0272
77.500000	78.066	-22.3533
78.800003	78.085	-21.6809
80.000000	78.103	-21.0454
81.199997	78.123	-20.4134
82.500000	78.148	-19.7558
83.800003	78.177	-19.1331
85.000000	78.206	-18.5752
86.199997	78.239	-18.0297
87.500000	78.276	-17.4630
88.500000	78.301	-17.0490
90.000000	78.329	-16.4416
91.199997	78.349	-15.9388
92.500000	78.372	-15.3679
93.800003	78.396	-14.7730
95.000000	78.418	-14.2176
96.199997	78.441	-13.6746
97.500000	78.468	-13.1054
98.800003	78.497	-12.5538
100.000000	78.526	-12.0590
101.500000	78.558	-11.4574
103.000000	78.581	-10.8670
104.400002	78.595	-10.3070
106.000000	78.602	-9.6274
107.500000	78.594	-8.9543
109.000000	78.576	-8.2650
110.599998	78.552	-7.5042
112.000000	78.529	-6.7931
113.800003	78.495	-5.8023
115.000000	78.471	-5.1068
117.199997	78.424	-3.8271
118.000000	78.405	-3.3753
120.599998	78.339	-1.9826
122.000000	78.303	-1.2616
124.099998	78.252	-0.1659
125.000000	78.232	0.3138
126.500000	78.203	1.1332
128.000000	78.174	1.9933
131.500000	78.096	4.0605
132.000000	78.085	4.3445
134.000000	78.050	5.4570
136.000000	78.025	6.5703
138.000000	78.005	7.7136
140.000000	77.987	8.8800
143.000000	77.966	10.5788
145.000000	77.958	11.6722
147.500000	77.957	13.0382
150.000000	77.966	14.4146
152.500000	77.982	15.7888
155.000000	78.006	17.1379
157.500000	78.037	18.4174
160.000000	78.078	19.6073
162.500000	78.130	20.7692
165.000000	78.189	21.9746
167.500000	78.252	23.2045
170.000000	78.323	24.3716
172.500000	78.401	25.4145
175.000000	78.481	26.3607
177.500000	78.558	27.2569
180.000000	78.632	28.1010
182.500000	78.701	28.8914
185.000000	78.761	29.6388
187.500000	78.811	30.3426
190.000000	78.858	31.0142
192.500000	78.910	31.6533
195.000000	78.975	32.2491
197.500000	79.054	32.8015
200.000000	79.147	33.3212
203.000000	79.270	33.8946
206.000000	79.401	34.3844
209.000000	79.532	34.7982
212.000000	79.652	35.1699
214.000000	79.722	35.4049
218.000000	79.838	35.8420
220.000000	79.886	36.0400
224.000000	79.971	36.3995
227.000000	80.025	36.6477
230.000000	80.072	36.8954
233.000000	80.110	37.1444
236.000000	80.139	37.3806
240.000000	80.165	37.6581
243.000000	80.175	37.8460
247.000000	80.173	38.1058
250.000000	80.162	38.3200
254.000000	80.137	38.6245
258.000000	80.099	38.9222
262.000000	80.050	39.2063
265.000000	80.006	39.4342
269.000000	79.944	39.7797
272.000000	79.893	40.0622
276.000000	79.818	40.4416
280.000000	79.735	40.7955
285.000000	79.618	41.2063
290.000000	79.482	41.6507
295.000000	79.333	42.1762
300.000000	79.178	42.7562
304.000000	79.053	43.2322
307.000000	78.959	43.5830
311.000000	78.836	44.0237
315.000000	78.718	44.4344
320.000000	78.583	44.9404
325.000000	78.465	45.4653
330.000000	78.365	46.0264
335.000000	78.282	46.6245
340.000000	78.217	47.2351
345.000000	78.166	47.8389
350.000000	78.123	48.4279
355.000000	78.087	49.0307
360.000000	78.064	49.6760
365.000000	78.060	50.3656
370.000000	78.072	51.0795
375.000000	78.098	51.7707
382.000000	78.157	52.6628
387.000000	78.214	53.2811
395.000000	78.323	54.2600
400.000000	78.402	54.8397
406.000000	78.501	55.4860
412.000000	78.603	56.0663
418.000000	78.708	56.5695
425.000000	78.829	57.0841
431.000000	78.931	57.4684
437.000000	79.033	57.7945
444.000000	79.153	58.1024
450.000000	79.256	58.2986
455.000000	79.343	58.4087
462.000000	79.467	58.5075
468.000000	79.571	58.5722
475.000000	79.686	58.6156
482.000000	79.791	58.6321
487.000000	79.862	58.6403
494.000000	79.952	58.6418
500.000000	80.022	58.6282
508.000000	80.106	58.6177
515.000000	80.169	58.6452
522.000000	80.220	58.7105
530.000000	80.260	58.8182
538.000000	80.279	58.9578
545.000000	80.278	59.0984
552.000000	80.262	59.2584
560.000000	80.225	59.4879
570.000000	80.147	59.9082
580.000000	80.038	60.4770
590.000000	79.906	61.1477
600.000000	79.752	61.8755
608.000000	79.618	62.4796
615.000000	79.495	63.0187
622.000000	79.366	63.5643
630.000000	79.215	64.2083
640.000000	79.021	65.0688
650.000000	78.830	65.9924
660.000000	78.648	66.9610
670.000000	78.473	67.9749
680.000000	78.303	69.0121
690.000000	78.143	70.0539
700.000000	77.997	71.0743
710.000000	77.865	72.0981
720.000000	77.744	73.1849
730.000000	77.628	74.3532
740.000000	77.513	75.5795
750.000000	77.397	76.8337
762.000000	77.253	78.3742
775.000000	77.092	80.1082
788.000000	76.928	81.9150
800.000000	76.770	83.6348
812.000000	76.607	85.4074
825.000000	76.430	87.3230
838.000000	76.252	89.1455
850.000000	76.089	90.7497
862.000000	75.930	92.2866
875.000000	75.769	93.8618
885.000000	75.659	95.0199
900.000000	75.524	96.7184
912.000000	75.441	98.0714
925.000000	75.374	99.5513
938.000000	75.327	101.0593
950.000000	75.297	102.4837
962.000000	75.275	103.9370
975.000000	75.258	105.5343
988.000000	75.245	107.1333
1000.000000	75.231	108.5749
1015.000000	75.197	110.2648
1030.000000	75.145	111.7782
1044.000000	75.080	113.0251
1060.000000	74.986	114.3183
1075.000000	74.877	115.4673
1090.000000	74.755	116.5668
1106.000000	74.619	117.6967
1120.000000	74.502	118.6675
1138.000000	74.366	119.9113
1150.000000	74.289	120.7453
1172.000000	74.187	122.2940
1180.000000	74.163	122.8654
1206.000000	74.143	124.7314
1220.000000	74.174	125.7119
1241.000000	74.276	127.1282
1250.000000	74.336	127.7171
1265.000000	74.450	128.6803
1280.000000	74.573	129.6307
1315.000000	74.830	131.8252
1320.000000	74.858	132.1371
1340.000000	74.933	133.3927
1360.000000	74.952	134.7110
1380.000000	74.935	136.1707
1400.000000	74.910	137.8036
1430.000000	74.910	140.5307
1450.000000	74.951	142.4591
1475.000000	75.052	144.8657
1500.000000	75.207	147.1345
1525.000000	75.407	149.1989
1550.000000	75.631	151.1164
1575.000000	75.861	152.9438
1600.000000	76.095	154.7442
1625.000000	76.340	156.5347
1650.000000	76.603	158.2854
1675.000000	76.885	159.9765
1700.000000	77.184	161.5676
1725.000000	77.495	163.0022
1750.000000	77.805	164.2276
1775.000000	78.102	165.2238
1800.000000	78.376	166.0155
1825.000000	78.622	166.6770
1850.000000	78.839	167.2798
1875.000000	79.031	167.8571
1900.000000	79.203	168.4069
1925.000000	79.362	168.9113
1950.000000	79.512	169.3649
1975.000000	79.651	169.7816
2000.000000	79.779	170.1869
2030.000000	79.919	170.6947
2060.000000	80.044	171.2451
2090.000000	80.163	171.8192
2120.000000	80.283	172.3785
2140.000000	80.365	172.7481
2180.000000	80.529	173.4871
2200.000000	80.608	173.8358
2240.000000	80.759	174.4798
2270.000000	80.868	174.9529
2300.000000	80.974	175.4325
2330.000000	81.079	175.9059
2360.000000	81.182	176.3569
2400.000000	81.319	176.9160
2430.000000	81.424	177.3018
2470.000000	81.562	177.7544
2500.000000	81.660	178.0461
2540.000000	81.786	178.4082
2580.000000	81.916	178.7478
2620.000000	82.049	178.9975
2650.000000	82.145	179.0806
2690.000000	82.261	179.0423
2720.000000	82.333	178.9317
2760.000000	82.405	178.7313
2800.000000	82.447	178.5216
2850.000000	82.465	178.3804
2900.000000	82.477	178.5045
2950.000000	82.506	178.6704
3000.000000	82.521	178.7312
3040.000000	82.528	178.8019
3070.000000	82.535	178.7891
3110.000000	82.531	178.6628
3150.000000	82.502	178.5215
3200.000000	82.435	178.4556
3250.000000	82.346	178.5437
3300.000000	82.248	178.7805
3350.000000	82.150	179.1296
3400.000000	82.045	179.5658
3450.000000	81.934	-179.9082
3500.000000	81.817	-179.3058
3550.000000	81.701	-178.6432
3600.000000	81.591	-177.9221
3650.000000	81.488	-177.1427
3700.000000	81.394	-176.2847
3750.000000	81.319	-175.3521
3820.000000	81.252	-173.9871
3870.000000	81.222	-172.9971
3950.000000	81.195	-171.3651
4000.000000	81.185	-170.2940
4060.000000	81.175	-168.9888
4120.000000	81.166	-167.6961
4180.000000	81.156	-166.4017
4250.000000	81.153	-164.8768
4310.000000	81.166	-163.5781
4370.000000	81.203	-162.3261
4440.000000	81.291	-160.9640
4500.000000	81.415	-159.9200
4550.000000	81.554	-159.1795
4620.000000	81.794	-158.4164
4680.000000	82.031	-158.0681
4750.000000	82.321	-158.0651
4820.000000	82.606	-158.5172
4870.000000	82.791	-159.1135
4940.000000	83.011	-160.2957
5000.000000	83.155	-161.5739
5080.000000	83.278	-163.5157
5150.000000	83.324	-165.2926
5220.000000	83.318	-167.0395
5300.000000	83.262	-168.9454
5380.000000	83.162	-170.7661
5450.000000	83.041	-172.3125
5520.000000	82.888	-173.7672
5600.000000	82.687	-175.2172
5700.000000	82.433	-176.6877
5800.000000	82.206	-177.9635
5900.000000	82.010	-179.2734
6000.000000	81.819	179.2858
6080.000000	81.648	178.0876
6150.000000	81.476	177.0624
6220.000000	81.286	176.0863
6300.000000	81.050	175.0465
6400.000000	80.748	173.8552
6500.000000	80.456	172.7425
6600.000000	80.191	171.5903
6700.000000	79.954	170.2333
6800.000000	79.737	168.5206
6900.000000	79.519	166.3276
7000.000000	79.272	163.6143
7100.000000	78.972	160.3765
7200.000000	78.588	156.6402
7300.000000	78.079	152.5323
7400.000000	77.405	148.3377
7500.000000	76.545	144.4568
7620.000000	75.270	140.8759
7750.000000	73.636	139.1142
7880.000000	71.796	140.1381
8000.000000	69.952	144.4020
8120.000000	68.117	152.7779
8250.000000	66.448	166.2147
8380.000000	65.430	-177.8403
8500.000000	65.212	-163.1700
8620.000000	65.623	-150.6578
8750.000000	66.514	-140.7775
8850.000000	67.330	-135.7509
9000.000000	68.542	-131.6414
9120.000000	69.394	-130.6202
9250.000000	70.136	-131.0640
9380.000000	70.670	-132.4852
9500.000000	70.988	-134.1953
9620.000000	71.162	-135.9476
9750.000000	71.219	-137.6354
9880.000000	71.179	-138.9420
10000.000000	71.087	-139.7360
10150.000000	70.940	-140.1570
10300.000000	70.784	-139.9908
10440.000000	70.652	-139.3733
10600.000000	70.544	-138.2220
10750.000000	70.509	-136.8441
10900.000000	70.553	-135.3109
11060.000000	70.695	-133.5959
11200.000000	70.899	-132.0861
11380.000000	71.281	-130.2444
11500.000000	71.620	-129.1597
11720.000000	72.451	-127.7648
11800.000000	72.826	-127.5683
12060.000000	74.292	-128.8931
12200.000000	75.190	-131.3784
12410.000000	76.512	-138.1683
12500.000000	77.002	-142.2834
12650.000000	77.610	-150.6063
12800.000000	77.856	-160.2911
13150.000000	76.684	176.9711
13200.000000	76.327	174.2302
13400.000000	74.556	165.4949
13600.000000	72.461	160.7735
13800.000000	70.353	159.9651
14000.000000	68.504	162.4512
14300.000000	66.621	170.4820
14500.000000	66.077	177.3401
14750.000000	66.172	-174.2325
15000.000000	66.944	-168.0000
15250.000000	68.079	-165.5839
15500.000000	69.269	-167.5619
15750.000000	70.308	-173.5802
16000.000000	71.084	177.3077
16250.000000	71.551	166.2238
16500.000000	71.697	154.1798
16750.000000	71.517	141.9502
17000.000000	71.012	130.1906
17250.000000	70.207	119.5377
17500.000000	69.163	110.5350
17750.000000	67.979	103.4744
18000.000000	66.763	98.3266
18250.000000	65.597	94.7850
18500.000000	64.514	92.4365
18750.000000	63.505	90.8635
19000.000000	62.545	89.6967
19250.000000	61.598	88.5926
19500.000000	60.643	87.2436
19750.000000	59.752	85.6214
20000.000000	59.182	84.3568
