* Measurement data measured by REW V5.31.3
* Source: Microphone (6- USB Sound Device        ), MICROPHONE (Master Volume), L, volume: 0.700
* Format: 256k Log Swept Sine, 1 sweep at -12.0 dBFS with no timing reference
* Dated: 04-Mar-2025 19:20:34
* REW Settings:
*  C-weighting compensation: Off
*  Target level: 75.0 dB
* Note: 
* Measurement: HFBP4 TB
* Smoothing: 1/12 octave
* Frequency Step: 1/48 octave
* Start Frequency: 20.300 Hz
*
* Freq(Hz)	SPL(dB)	Phase(degrees)
20.299999	82.584	-27.7224
20.600000	82.548	-27.6682
20.900000	82.501	-27.5960
21.200001	82.450	-27.5141
21.400000	82.415	-27.4556
21.799999	82.347	-27.3291
22.000000	82.313	-27.2607
22.400000	82.250	-27.1143
22.700001	82.206	-27.0003
23.000000	82.167	-26.8899
23.299999	82.131	-26.7906
23.600000	82.098	-26.7095
24.000000	82.057	-26.6360
24.299999	82.027	-26.6066
24.700001	81.989	-26.5960
25.000000	81.961	-26.6051
25.400000	81.928	-26.6360
25.799999	81.897	-26.6875
26.200001	81.868	-26.7586
26.500000	81.847	-26.8218
26.900000	81.818	-26.9112
27.200001	81.796	-26.9765
27.600000	81.769	-27.0580
28.000000	81.745	-27.1392
28.500000	81.720	-27.2622
29.000000	81.698	-27.4317
29.500000	81.673	-27.6485
30.000000	81.643	-27.8932
30.400000	81.617	-28.0978
30.700001	81.597	-28.2561
31.100000	81.570	-28.4772
31.500000	81.543	-28.7129
32.000000	81.509	-29.0258
32.500000	81.476	-29.3506
33.000000	81.445	-29.6859
33.500000	81.414	-30.0426
34.000000	81.382	-30.4287
34.500000	81.346	-30.8369
35.000000	81.304	-31.2500
35.500000	81.257	-31.6581
36.000000	81.210	-32.0662
36.500000	81.162	-32.4838
37.000000	81.113	-32.9129
37.500000	81.060	-33.3475
38.200001	80.977	-33.9548
38.700001	80.910	-34.3873
39.500000	80.795	-35.0816
40.000000	80.720	-35.5172
40.599998	80.631	-36.0409
41.200001	80.545	-36.5595
41.799999	80.459	-37.0574
42.500000	80.354	-37.5924
43.099998	80.255	-38.0128
43.700001	80.148	-38.4122
44.400002	80.016	-38.8635
45.000000	79.901	-39.2328
45.500000	79.807	-39.5196
46.200001	79.675	-39.8767
46.799999	79.562	-40.1375
47.500000	79.431	-40.4032
48.200001	79.303	-40.6625
48.700001	79.214	-40.8567
49.400002	79.089	-41.1221
50.000000	78.978	-41.3086
50.799999	78.824	-41.4700
51.500000	78.683	-41.5487
52.200001	78.540	-41.5941
53.000000	78.379	-41.6246
53.799999	78.224	-41.6640
54.500000	78.092	-41.7170
55.200001	77.962	-41.7595
56.000000	77.814	-41.7603
57.000000	77.635	-41.7044
58.000000	77.460	-41.6280
59.000000	77.290	-41.5259
60.000000	77.125	-41.3723
60.799999	76.999	-41.2064
61.500000	76.892	-41.0371
62.200001	76.788	-40.8541
63.000000	76.669	-40.6370
64.000000	76.520	-40.3684
65.000000	76.369	-40.1013
66.000000	76.220	-39.8111
67.000000	76.082	-39.4904
68.000000	75.951	-39.1514
69.000000	75.822	-38.8077
70.000000	75.692	-38.4648
71.000000	75.563	-38.1239
72.000000	75.438	-37.7945
73.000000	75.318	-37.4818
74.000000	75.205	-37.1758
75.000000	75.097	-36.8593
76.199997	74.970	-36.4666
77.500000	74.834	-36.0613
78.800003	74.698	-35.6621
80.000000	74.574	-35.2513
81.199997	74.451	-34.7955
82.500000	74.316	-34.2991
83.800003	74.182	-33.8410
85.000000	74.063	-33.4442
86.199997	73.953	-33.0517
87.500000	73.839	-32.6173
88.500000	73.749	-32.2715
90.000000	73.608	-31.7321
91.199997	73.493	-31.2965
92.500000	73.368	-30.8315
93.800003	73.249	-30.3615
95.000000	73.142	-29.9138
96.199997	73.031	-29.4574
97.500000	72.905	-28.9493
98.800003	72.777	-28.4151
100.000000	72.667	-27.9083
101.500000	72.537	-27.2804
103.000000	72.414	-26.6517
104.400002	72.300	-26.0430
106.000000	72.171	-25.3278
107.500000	72.049	-24.6433
109.000000	71.927	-23.9195
110.599998	71.798	-23.0809
112.000000	71.687	-22.2975
113.800003	71.548	-21.2627
115.000000	71.459	-20.5806
117.199997	71.308	-19.3671
118.000000	71.258	-18.9317
120.599998	71.098	-17.5171
122.000000	71.011	-16.7428
124.099998	70.885	-15.5295
125.000000	70.834	-14.9872
126.500000	70.753	-14.0609
128.000000	70.674	-13.1247
131.500000	70.503	-10.9902
132.000000	70.480	-10.6891
134.000000	70.395	-9.4748
136.000000	70.319	-8.2425
138.000000	70.255	-7.0143
140.000000	70.203	-5.7798
143.000000	70.137	-3.9037
145.000000	70.097	-2.6892
147.500000	70.054	-1.1986
150.000000	70.023	0.2970
152.500000	69.998	1.8020
155.000000	69.981	3.2859
157.500000	69.975	4.6849
160.000000	69.982	6.0022
162.500000	69.999	7.2851
165.000000	70.023	8.5788
167.500000	70.054	9.9033
170.000000	70.094	11.2002
172.500000	70.140	12.3924
175.000000	70.187	13.4784
177.500000	70.233	14.4880
180.000000	70.277	15.4410
182.500000	70.313	16.3714
185.000000	70.336	17.2894
187.500000	70.347	18.1726
190.000000	70.355	19.0162
192.500000	70.371	19.8288
195.000000	70.403	20.6208
197.500000	70.452	21.3820
200.000000	70.514	22.0988
203.000000	70.601	22.8932
206.000000	70.696	23.6031
209.000000	70.793	24.2376
212.000000	70.882	24.8421
214.000000	70.934	25.2486
218.000000	71.017	26.0330
220.000000	71.053	26.3800
224.000000	71.116	26.9814
227.000000	71.156	27.4189
230.000000	71.191	27.8723
233.000000	71.221	28.3227
236.000000	71.246	28.7578
240.000000	71.274	29.3299
243.000000	71.292	29.7516
247.000000	71.309	30.3053
250.000000	71.318	30.7242
254.000000	71.328	31.2924
258.000000	71.335	31.8612
262.000000	71.338	32.4296
265.000000	71.338	32.8685
269.000000	71.339	33.4734
272.000000	71.339	33.9460
276.000000	71.339	34.5957
280.000000	71.338	35.2502
285.000000	71.334	36.0687
290.000000	71.325	36.9329
295.000000	71.320	37.8546
300.000000	71.322	38.7941
304.000000	71.330	39.5363
307.000000	71.340	40.0845
311.000000	71.359	40.8096
315.000000	71.387	41.5329
320.000000	71.434	42.4167
325.000000	71.495	43.2661
330.000000	71.571	44.1224
335.000000	71.666	44.9895
340.000000	71.778	45.8301
345.000000	71.903	46.6102
350.000000	72.037	47.3157
355.000000	72.179	47.9815
360.000000	72.332	48.6475
365.000000	72.499	49.3423
370.000000	72.679	50.0629
375.000000	72.870	50.7696
382.000000	73.153	51.7162
387.000000	73.362	52.3653
395.000000	73.705	53.3753
400.000000	73.921	54.0128
406.000000	74.172	54.8021
412.000000	74.410	55.5799
418.000000	74.631	56.3089
425.000000	74.865	57.1494
431.000000	75.046	57.8793
437.000000	75.210	58.5827
444.000000	75.383	59.3524
450.000000	75.514	59.9805
455.000000	75.611	60.4755
462.000000	75.731	61.0967
468.000000	75.817	61.5610
475.000000	75.895	62.0377
482.000000	75.950	62.4681
487.000000	75.977	62.7455
494.000000	75.999	63.0779
500.000000	76.011	63.2946
508.000000	76.021	63.5021
515.000000	76.025	63.6536
522.000000	76.022	63.7963
530.000000	76.014	63.9596
538.000000	76.002	64.1506
545.000000	75.990	64.3504
552.000000	75.976	64.5951
560.000000	75.955	64.9682
570.000000	75.915	65.6422
580.000000	75.864	66.5342
590.000000	75.804	67.5771
600.000000	75.734	68.7157
608.000000	75.671	69.6702
615.000000	75.612	70.5207
622.000000	75.549	71.3717
630.000000	75.472	72.3449
640.000000	75.370	73.5706
650.000000	75.271	74.7852
660.000000	75.181	75.9588
670.000000	75.098	77.1074
680.000000	75.020	78.2220
690.000000	74.950	79.2966
700.000000	74.890	80.3293
710.000000	74.840	81.3511
720.000000	74.793	82.4221
730.000000	74.743	83.5788
740.000000	74.686	84.8175
750.000000	74.620	86.1041
762.000000	74.525	87.6858
775.000000	74.405	89.4733
788.000000	74.273	91.3545
800.000000	74.146	93.1721
812.000000	74.020	95.0786
825.000000	73.895	97.1868
838.000000	73.782	99.2626
850.000000	73.689	101.1597
862.000000	73.608	103.0384
875.000000	73.537	105.0352
885.000000	73.496	106.5476
900.000000	73.459	108.7657
912.000000	73.447	110.4751
925.000000	73.444	112.2634
938.000000	73.453	113.9914
950.000000	73.474	115.5467
962.000000	73.507	117.0954
975.000000	73.555	118.7991
988.000000	73.614	120.5331
1000.000000	73.672	122.1425
1015.000000	73.741	124.1189
1030.000000	73.802	126.0010
1044.000000	73.851	127.6592
1060.000000	73.896	129.4588
1075.000000	73.932	131.0660
1090.000000	73.968	132.5736
1106.000000	74.017	134.0700
1120.000000	74.072	135.3185
1138.000000	74.161	136.8828
1150.000000	74.228	137.9082
1172.000000	74.355	139.7446
1180.000000	74.401	140.3890
1206.000000	74.550	142.3559
1220.000000	74.639	143.3369
1241.000000	74.797	144.7494
1250.000000	74.876	145.3475
1265.000000	75.017	146.3569
1280.000000	75.169	147.4088
1315.000000	75.502	150.0528
1320.000000	75.541	150.4376
1340.000000	75.663	151.9521
1360.000000	75.734	153.4233
1380.000000	75.769	154.8870
1400.000000	75.796	156.3854
1430.000000	75.865	158.7727
1450.000000	75.935	160.4721
1475.000000	76.046	162.6688
1500.000000	76.193	164.8695
1525.000000	76.388	167.0659
1550.000000	76.631	169.2586
1575.000000	76.910	171.4084
1600.000000	77.209	173.5099
1625.000000	77.524	175.5025
1650.000000	77.851	177.3161
1675.000000	78.188	178.9716
1700.000000	78.532	-179.4651
1725.000000	78.879	-177.9606
1750.000000	79.221	-176.5524
1775.000000	79.551	-175.3065
1800.000000	79.863	-174.2683
1825.000000	80.152	-173.4004
1850.000000	80.411	-172.6204
1875.000000	80.633	-171.8702
1900.000000	80.810	-171.1422
1925.000000	80.943	-170.4554
1950.000000	81.038	-169.8098
1975.000000	81.098	-169.1740
2000.000000	81.125	-168.5135
2030.000000	81.119	-167.6837
2060.000000	81.072	-166.8542
2090.000000	80.997	-166.0939
2120.000000	80.907	-165.4280
2140.000000	80.842	-164.9958
2180.000000	80.706	-164.0597
2200.000000	80.641	-163.5655
2240.000000	80.553	-162.5847
2270.000000	80.546	-161.8631
2300.000000	80.593	-161.1652
2330.000000	80.682	-160.5280
2360.000000	80.799	-159.9737
2400.000000	80.977	-159.3066
2430.000000	81.122	-158.7914
2470.000000	81.320	-158.0800
2500.000000	81.468	-157.5842
2540.000000	81.671	-157.0114
2580.000000	81.878	-156.5345
2620.000000	82.080	-156.1776
2650.000000	82.223	-156.0089
2690.000000	82.408	-155.8999
2720.000000	82.540	-155.8772
2760.000000	82.697	-155.9198
2800.000000	82.826	-156.0505
2850.000000	82.947	-156.1699
2900.000000	83.055	-155.9995
2950.000000	83.183	-155.7684
3000.000000	83.309	-155.6844
3040.000000	83.408	-155.6477
3070.000000	83.478	-155.7146
3110.000000	83.551	-155.9197
3150.000000	83.600	-156.1143
3200.000000	83.639	-156.2404
3250.000000	83.665	-156.2837
3300.000000	83.679	-156.2576
3350.000000	83.679	-156.1409
3400.000000	83.671	-155.9357
3450.000000	83.659	-155.6685
3500.000000	83.641	-155.3960
3550.000000	83.614	-155.1229
3600.000000	83.586	-154.7971
3650.000000	83.561	-154.4193
3700.000000	83.545	-154.0137
3750.000000	83.541	-153.5831
3820.000000	83.550	-152.9199
3870.000000	83.566	-152.3974
3950.000000	83.601	-151.5180
4000.000000	83.620	-150.9402
4060.000000	83.634	-150.1876
4120.000000	83.642	-149.3837
4180.000000	83.649	-148.5449
4250.000000	83.657	-147.5244
4310.000000	83.676	-146.6029
4370.000000	83.720	-145.6838
4440.000000	83.816	-144.7173
4500.000000	83.940	-144.0182
4550.000000	84.072	-143.5399
4620.000000	84.298	-143.0826
4680.000000	84.521	-142.9569
4750.000000	84.793	-143.1598
4820.000000	85.059	-143.7566
4870.000000	85.232	-144.4305
4940.000000	85.433	-145.6826
5000.000000	85.562	-146.9673
5080.000000	85.669	-148.8411
5150.000000	85.706	-150.5097
5220.000000	85.696	-152.0895
5300.000000	85.646	-153.7367
5380.000000	85.567	-155.2737
5450.000000	85.475	-156.5710
5520.000000	85.361	-157.7880
5600.000000	85.216	-159.0063
5700.000000	85.039	-160.2524
5800.000000	84.897	-161.3735
5900.000000	84.786	-162.5886
6000.000000	84.682	-163.9427
6080.000000	84.581	-165.0752
6150.000000	84.472	-166.0462
6220.000000	84.348	-166.9723
6300.000000	84.193	-167.9721
6400.000000	83.997	-169.1412
6500.000000	83.822	-170.2744
6600.000000	83.681	-171.5165
6700.000000	83.574	-173.0419
6800.000000	83.490	-175.0010
6900.000000	83.408	-177.4962
7000.000000	83.298	179.3925
7100.000000	83.129	175.6460
7200.000000	82.869	171.3152
7300.000000	82.475	166.5435
7400.000000	81.909	161.6308
7500.000000	81.148	156.9754
7620.000000	79.984	152.3784
7750.000000	78.458	149.3927
7880.000000	76.705	149.0575
8000.000000	74.922	151.9288
8120.000000	73.116	158.7632
8250.000000	71.433	170.4513
8380.000000	70.351	-175.1532
8500.000000	70.051	-161.5714
8620.000000	70.382	-149.8631
8750.000000	71.198	-140.6435
8850.000000	71.965	-136.0184
9000.000000	73.113	-132.4116
9120.000000	73.916	-131.7390
9250.000000	74.607	-132.5143
9380.000000	75.094	-134.2197
9500.000000	75.378	-136.1460
9620.000000	75.526	-138.0724
9750.000000	75.567	-139.9071
9880.000000	75.520	-141.3263
10000.000000	75.432	-142.2166
10150.000000	75.300	-142.7738
10300.000000	75.171	-142.7652
10440.000000	75.075	-142.3195
10600.000000	75.017	-141.4263
10750.000000	75.036	-140.3815
10900.000000	75.139	-139.2682
11060.000000	75.345	-138.0906
11200.000000	75.604	-137.1325
11380.000000	76.049	-136.1220
11500.000000	76.422	-135.6641
11720.000000	77.290	-135.5139
11800.000000	77.669	-135.7773
12060.000000	79.122	-138.5005
12200.000000	80.006	-141.6093
12410.000000	81.323	-149.1345
12500.000000	81.823	-153.5197
12650.000000	82.465	-162.3027
12800.000000	82.764	-172.5426
13150.000000	81.706	162.7795
13200.000000	81.357	159.7021
13400.000000	79.585	149.5741
13600.000000	77.439	143.5123
13800.000000	75.241	141.5291
14000.000000	73.280	143.0418
14300.000000	71.228	149.9313
14500.000000	70.589	156.1466
14750.000000	70.590	163.8166
15000.000000	71.286	169.3601
15250.000000	72.373	171.1792
15500.000000	73.552	168.6501
15750.000000	74.618	162.0050
16000.000000	75.447	152.0469
16250.000000	75.966	139.8076
16500.000000	76.140	126.3111
16750.000000	75.944	112.4069
17000.000000	75.371	98.8343
17250.000000	74.439	86.3263
17500.000000	73.204	75.5601
17750.000000	71.765	66.9572
18000.000000	70.243	60.5822
18250.000000	68.744	56.2084
18500.000000	67.327	53.4361
18750.000000	66.006	51.8071
19000.000000	64.767	50.8469
19250.000000	63.584	50.0815
19500.000000	62.444	49.1434
19750.000000	61.418	47.9560
20000.000000	60.776	47.0026
