* Measurement data measured by REW V5.31.3
* Source: Microphone (6- USB Sound Device        ), MICROPHONE (Master Volume), L, volume: 0.700
* Format: 256k Log Swept Sine, 1 sweep at -12.0 dBFS with no timing reference
* Dated: 04-Mar-2025 19:19:06
* REW Settings:
*  C-weighting compensation: Off
*  Target level: 75.0 dB
* Note: 
* Measurement: HFBP4 CL
* Smoothing: 1/12 octave
* Frequency Step: 1/48 octave
* Start Frequency: 20.300 Hz
*
* Freq(Hz)	SPL(dB)	Phase(degrees)
20.299999	79.564	-21.6470
20.600000	79.525	-21.4918
20.900000	79.477	-21.3033
21.200001	79.426	-21.1128
21.400000	79.392	-20.9904
21.799999	79.328	-20.7557
22.000000	79.297	-20.6402
22.400000	79.241	-20.4052
22.700001	79.203	-20.2237
23.000000	79.169	-20.0410
23.299999	79.137	-19.8634
23.600000	79.107	-19.6971
24.000000	79.066	-19.4992
24.299999	79.033	-19.3684
24.700001	78.989	-19.2110
25.000000	78.955	-19.1003
25.400000	78.912	-18.9571
25.799999	78.874	-18.8189
26.200001	78.839	-18.6903
26.500000	78.816	-18.6037
26.900000	78.789	-18.5057
27.200001	78.772	-18.4478
27.600000	78.751	-18.3956
28.000000	78.733	-18.3759
28.500000	78.711	-18.3956
29.000000	78.685	-18.4459
29.500000	78.653	-18.4936
30.000000	78.619	-18.5185
30.400000	78.593	-18.5290
30.700001	78.575	-18.5424
31.100000	78.553	-18.5801
31.500000	78.533	-18.6458
32.000000	78.507	-18.7575
32.500000	78.482	-18.8824
33.000000	78.457	-19.0109
33.500000	78.431	-19.1493
34.000000	78.402	-19.3061
34.500000	78.368	-19.4816
35.000000	78.331	-19.6709
35.500000	78.291	-19.8706
36.000000	78.249	-20.0779
36.500000	78.207	-20.2863
37.000000	78.163	-20.4895
37.500000	78.117	-20.6893
38.200001	78.047	-20.9854
38.700001	77.993	-21.2173
39.500000	77.894	-21.5884
40.000000	77.827	-21.7883
40.599998	77.744	-21.9835
41.200001	77.659	-22.1455
41.799999	77.573	-22.2928
42.500000	77.472	-22.4551
43.099998	77.386	-22.5859
43.700001	77.300	-22.7044
44.400002	77.198	-22.8113
45.000000	77.106	-22.8637
45.500000	77.027	-22.8814
46.200001	76.912	-22.8841
46.799999	76.814	-22.8786
47.500000	76.704	-22.8572
48.200001	76.600	-22.7923
48.700001	76.530	-22.7079
49.400002	76.434	-22.5426
50.000000	76.348	-22.3728
50.799999	76.223	-22.1234
51.500000	76.109	-21.8885
52.200001	75.998	-21.6377
53.000000	75.879	-21.3115
53.799999	75.766	-20.9267
54.500000	75.673	-20.5700
55.200001	75.582	-20.2294
56.000000	75.478	-19.8511
57.000000	75.353	-19.3343
58.000000	75.242	-18.7481
59.000000	75.144	-18.1031
60.000000	75.052	-17.4025
60.799999	74.983	-16.8311
61.500000	74.926	-16.3529
62.200001	74.874	-15.9038
63.000000	74.820	-15.4176
64.000000	74.760	-14.8250
65.000000	74.702	-14.2199
66.000000	74.643	-13.6000
67.000000	74.585	-12.9956
68.000000	74.531	-12.4155
69.000000	74.487	-11.8517
70.000000	74.453	-11.3066
71.000000	74.427	-10.7592
72.000000	74.407	-10.1794
73.000000	74.391	-9.5787
74.000000	74.377	-8.9989
75.000000	74.361	-8.4881
76.199997	74.336	-7.9805
77.500000	74.308	-7.4540
78.800003	74.289	-6.8862
80.000000	74.279	-6.3666
81.199997	74.273	-5.8815
82.500000	74.271	-5.4044
83.800003	74.270	-4.9755
85.000000	74.266	-4.6023
86.199997	74.259	-4.2321
87.500000	74.249	-3.8449
88.500000	74.240	-3.5771
90.000000	74.226	-3.2283
91.199997	74.217	-2.9669
92.500000	74.210	-2.6730
93.800003	74.199	-2.3706
95.000000	74.184	-2.1113
96.199997	74.167	-1.8854
97.500000	74.150	-1.6629
98.800003	74.133	-1.4405
100.000000	74.115	-1.2197
101.500000	74.087	-0.9192
103.000000	74.057	-0.6101
104.400002	74.027	-0.3270
106.000000	73.989	0.0095
107.500000	73.952	0.3631
109.000000	73.914	0.7229
110.599998	73.875	1.0695
112.000000	73.843	1.3482
113.800003	73.800	1.7080
115.000000	73.770	1.9602
117.199997	73.714	2.4607
118.000000	73.694	2.6542
120.599998	73.632	3.3060
122.000000	73.601	3.6591
124.099998	73.557	4.1716
125.000000	73.539	4.3880
126.500000	73.511	4.7561
128.000000	73.485	5.1423
131.500000	73.423	6.1319
132.000000	73.413	6.2801
134.000000	73.378	6.8792
136.000000	73.351	7.4710
138.000000	73.328	8.0558
140.000000	73.304	8.6505
143.000000	73.268	9.5605
145.000000	73.246	10.1497
147.500000	73.225	10.8625
150.000000	73.219	11.5553
152.500000	73.221	12.2194
155.000000	73.220	12.8603
157.500000	73.219	13.5334
160.000000	73.224	14.2334
162.500000	73.238	14.9108
165.000000	73.257	15.5460
167.500000	73.275	16.1378
170.000000	73.287	16.6895
172.500000	73.298	17.2182
175.000000	73.312	17.7326
177.500000	73.326	18.2383
180.000000	73.336	18.7215
182.500000	73.338	19.1841
185.000000	73.329	19.6459
187.500000	73.309	20.1023
190.000000	73.283	20.5381
192.500000	73.261	20.9502
195.000000	73.251	21.3350
197.500000	73.262	21.7032
200.000000	73.290	22.0545
203.000000	73.336	22.4431
206.000000	73.385	22.7991
209.000000	73.433	23.1247
212.000000	73.474	23.4350
214.000000	73.495	23.6445
218.000000	73.517	24.0665
220.000000	73.518	24.2701
224.000000	73.509	24.6734
227.000000	73.497	24.9823
230.000000	73.486	25.2860
233.000000	73.474	25.5831
236.000000	73.460	25.8725
240.000000	73.437	26.2565
243.000000	73.418	26.5669
247.000000	73.384	27.0105
250.000000	73.353	27.3547
254.000000	73.312	27.8188
258.000000	73.275	28.3002
262.000000	73.237	28.8134
265.000000	73.208	29.2176
269.000000	73.167	29.7752
272.000000	73.136	30.2054
276.000000	73.097	30.8141
280.000000	73.063	31.4743
285.000000	73.026	32.3535
290.000000	72.996	33.2796
295.000000	72.975	34.2301
300.000000	72.960	35.1572
304.000000	72.950	35.8786
307.000000	72.945	36.4269
311.000000	72.941	37.1765
315.000000	72.946	37.9442
320.000000	72.971	38.9145
325.000000	73.016	39.8646
330.000000	73.072	40.7751
335.000000	73.142	41.6606
340.000000	73.231	42.5289
345.000000	73.336	43.3836
350.000000	73.441	44.2394
355.000000	73.544	45.1096
360.000000	73.654	45.9715
365.000000	73.777	46.7938
370.000000	73.910	47.5796
375.000000	74.045	48.3281
382.000000	74.231	49.3410
387.000000	74.368	50.0508
395.000000	74.603	51.1061
400.000000	74.755	51.7180
406.000000	74.935	52.4252
412.000000	75.108	53.1061
418.000000	75.274	53.7618
425.000000	75.459	54.5069
431.000000	75.606	55.1257
437.000000	75.737	55.7071
444.000000	75.870	56.3373
450.000000	75.971	56.8623
455.000000	76.049	57.2942
462.000000	76.150	57.8846
468.000000	76.226	58.3578
475.000000	76.301	58.8487
482.000000	76.367	59.2842
487.000000	76.409	59.5649
494.000000	76.460	59.9237
500.000000	76.498	60.2140
508.000000	76.537	60.5804
515.000000	76.562	60.8773
522.000000	76.582	61.1624
530.000000	76.602	61.4957
538.000000	76.621	61.8295
545.000000	76.635	62.1195
552.000000	76.649	62.4380
560.000000	76.663	62.8707
570.000000	76.677	63.5308
580.000000	76.689	64.2911
590.000000	76.702	65.0951
600.000000	76.712	65.9574
608.000000	76.722	66.7198
615.000000	76.735	67.4211
622.000000	76.752	68.1334
630.000000	76.777	68.9444
640.000000	76.819	69.9637
650.000000	76.873	70.9783
660.000000	76.933	71.9656
670.000000	76.995	72.9266
680.000000	77.059	73.8910
690.000000	77.123	74.8549
700.000000	77.187	75.7869
710.000000	77.244	76.7303
720.000000	77.289	77.7505
730.000000	77.319	78.8308
740.000000	77.329	79.9407
750.000000	77.315	81.0776
762.000000	77.264	82.4727
775.000000	77.169	84.0089
788.000000	77.037	85.5876
800.000000	76.888	87.0792
812.000000	76.719	88.5868
825.000000	76.518	90.2199
838.000000	76.305	91.8102
850.000000	76.103	93.2481
862.000000	75.908	94.6772
875.000000	75.715	96.1946
885.000000	75.582	97.3273
900.000000	75.415	98.9571
912.000000	75.310	100.2046
925.000000	75.226	101.5298
938.000000	75.181	102.8600
950.000000	75.173	104.1175
962.000000	75.191	105.4026
975.000000	75.233	106.8033
988.000000	75.293	108.1985
1000.000000	75.359	109.4568
1015.000000	75.443	110.9342
1030.000000	75.523	112.2892
1044.000000	75.587	113.4369
1060.000000	75.646	114.6185
1075.000000	75.690	115.6193
1090.000000	75.724	116.5277
1106.000000	75.753	117.4334
1120.000000	75.780	118.2183
1138.000000	75.822	119.2650
1150.000000	75.850	119.9877
1172.000000	75.898	121.3358
1180.000000	75.915	121.8249
1206.000000	75.981	123.3611
1220.000000	76.027	124.1360
1241.000000	76.115	125.2177
1250.000000	76.157	125.6589
1265.000000	76.231	126.3930
1280.000000	76.304	127.1511
1315.000000	76.415	129.0095
1320.000000	76.418	129.2804
1340.000000	76.387	130.3858
1360.000000	76.295	131.5431
1380.000000	76.170	132.7839
1400.000000	76.044	134.1698
1430.000000	75.900	136.5477
1450.000000	75.855	138.2634
1475.000000	75.851	140.4583
1500.000000	75.893	142.5902
1525.000000	75.969	144.6051
1550.000000	76.065	146.5414
1575.000000	76.162	148.4533
1600.000000	76.247	150.3490
1625.000000	76.320	152.2209
1650.000000	76.388	154.0499
1675.000000	76.463	155.8116
1700.000000	76.555	157.5064
1725.000000	76.665	159.1245
1750.000000	76.785	160.6308
1775.000000	76.911	161.9768
1800.000000	77.043	163.1339
1825.000000	77.176	164.1301
1850.000000	77.308	165.0557
1875.000000	77.433	165.9735
1900.000000	77.546	166.8708
1925.000000	77.643	167.7251
1950.000000	77.727	168.5282
1975.000000	77.800	169.2921
2000.000000	77.864	170.0667
2030.000000	77.924	171.0400
2060.000000	77.968	172.0316
2090.000000	78.003	173.0159
2120.000000	78.039	173.9775
2140.000000	78.064	174.6122
2180.000000	78.113	175.8820
2200.000000	78.140	176.5021
2240.000000	78.206	177.6699
2270.000000	78.274	178.4979
2300.000000	78.356	179.3231
2330.000000	78.447	-179.8547
2360.000000	78.544	-179.0688
2400.000000	78.683	-178.1071
2430.000000	78.795	-177.4352
2470.000000	78.944	-176.5874
2500.000000	79.052	-176.0001
2540.000000	79.192	-175.3035
2580.000000	79.332	-174.6863
2620.000000	79.474	-174.1516
2650.000000	79.579	-173.8463
2690.000000	79.710	-173.5842
2720.000000	79.797	-173.4568
2760.000000	79.888	-173.3476
2800.000000	79.950	-173.2966
2850.000000	79.988	-173.1785
2900.000000	80.011	-172.7956
2950.000000	80.049	-172.3635
3000.000000	80.077	-172.0304
3040.000000	80.097	-171.7473
3070.000000	80.110	-171.6131
3110.000000	80.110	-171.5512
3150.000000	80.082	-171.5013
3200.000000	80.014	-171.3210
3250.000000	79.928	-170.9785
3300.000000	79.835	-170.4925
3350.000000	79.738	-169.8953
3400.000000	79.633	-169.1830
3450.000000	79.523	-168.3516
3500.000000	79.411	-167.4279
3550.000000	79.299	-166.4150
3600.000000	79.191	-165.3064
3650.000000	79.091	-164.1143
3700.000000	79.007	-162.8504
3750.000000	78.943	-161.5182
3820.000000	78.888	-159.5785
3870.000000	78.869	-158.1525
3950.000000	78.866	-155.7907
4000.000000	78.876	-154.2659
4060.000000	78.897	-152.4078
4120.000000	78.928	-150.5385
4180.000000	78.967	-148.6646
4250.000000	79.027	-146.4982
4310.000000	79.099	-144.6795
4370.000000	79.201	-142.9346
4440.000000	79.371	-141.0528
4500.000000	79.568	-139.6202
4550.000000	79.765	-138.5889
4620.000000	80.081	-137.4509
4680.000000	80.375	-136.8031
4750.000000	80.726	-136.4487
4820.000000	81.067	-136.5480
4870.000000	81.293	-136.8898
4940.000000	81.572	-137.6909
5000.000000	81.767	-138.6047
5080.000000	81.963	-140.0085
5150.000000	82.076	-141.2877
5220.000000	82.142	-142.5285
5300.000000	82.174	-143.8523
5380.000000	82.174	-145.1123
5450.000000	82.146	-146.1984
5520.000000	82.089	-147.2112
5600.000000	82.003	-148.1823
5700.000000	81.898	-149.1058
5800.000000	81.826	-149.8914
5900.000000	81.788	-150.7421
6000.000000	81.754	-151.7185
6080.000000	81.709	-152.5578
6150.000000	81.649	-153.2845
6220.000000	81.573	-153.9542
6300.000000	81.474	-154.6121
6400.000000	81.350	-155.2844
6500.000000	81.248	-155.8887
6600.000000	81.180	-156.5801
6700.000000	81.154	-157.5150
6800.000000	81.163	-158.8195
6900.000000	81.186	-160.6071
7000.000000	81.196	-162.9637
7100.000000	81.166	-165.9329
7200.000000	81.068	-169.4910
7300.000000	80.860	-173.4978
7400.000000	80.510	-177.6850
7500.000000	79.999	178.3012
7620.000000	79.182	174.2696
7750.000000	78.080	171.5115
7880.000000	76.792	170.9171
8000.000000	75.475	172.8920
8120.000000	74.162	177.6813
8250.000000	72.961	-174.4506
8380.000000	72.178	-165.0490
8500.000000	71.918	-156.1421
8620.000000	72.097	-148.1691
8750.000000	72.655	-141.5800
8850.000000	73.219	-138.2019
9000.000000	74.101	-135.7226
9120.000000	74.734	-135.5932
9250.000000	75.277	-136.7804
9380.000000	75.646	-138.8040
9500.000000	75.838	-140.9960
9620.000000	75.908	-143.1932
9750.000000	75.877	-145.3369
9880.000000	75.769	-147.0802
10000.000000	75.627	-148.2857
10150.000000	75.428	-149.2831
10300.000000	75.229	-149.7905
10440.000000	75.063	-149.8953
10600.000000	74.917	-149.6807
10750.000000	74.835	-149.2553
10900.000000	74.817	-148.6965
11060.000000	74.872	-148.0197
11200.000000	74.985	-147.3926
11380.000000	75.223	-146.6134
11500.000000	75.450	-146.1721
11720.000000	76.047	-145.7228
11800.000000	76.331	-145.7628
12060.000000	77.517	-147.3434
12200.000000	78.293	-149.6286
12410.000000	79.509	-155.7999
12500.000000	79.988	-159.6110
12650.000000	80.626	-167.5006
12800.000000	80.948	-176.9783
13150.000000	79.991	159.4006
13200.000000	79.657	156.4038
13400.000000	77.935	146.4966
13600.000000	75.823	140.5704
13800.000000	73.640	138.6922
14000.000000	71.675	140.3116
14300.000000	69.574	147.4005
14500.000000	68.881	153.7875
14750.000000	68.796	161.7872
15000.000000	69.407	167.8687
15250.000000	70.426	170.4265
15500.000000	71.559	168.7573
15750.000000	72.601	163.0003
16000.000000	73.424	153.8974
16250.000000	73.956	142.5007
16500.000000	74.155	129.8512
16750.000000	74.003	116.7786
17000.000000	73.496	103.9882
17250.000000	72.642	92.1945
17500.000000	71.493	82.0685
17750.000000	70.154	74.0227
18000.000000	68.746	68.1209
18250.000000	67.370	64.1227
18500.000000	66.081	61.6230
18750.000000	64.888	60.1441
19000.000000	63.764	59.1973
19250.000000	62.673	58.3836
19500.000000	61.591	57.3984
19750.000000	60.597	56.1571
20000.000000	59.969	55.1642
