* Measurement data measured by REW V5.31.3
* Source: Microphone (6- USB Sound Device        ), MICROPHONE (Master Volume), L, volume: 0.700
* Format: 256k Log Swept Sine, 1 sweep at -12.0 dBFS with no timing reference
* Dated: 04-Mar-2025 19:23:49
* REW Settings:
*  C-weighting compensation: Off
*  Target level: 75.0 dB
* Note: 
* Measurement: HFBP4 H
* Smoothing: 1/12 octave
* Frequency Step: 1/48 octave
* Start Frequency: 20.300 Hz
*
* Freq(Hz)	SPL(dB)	Phase(degrees)
20.299999	82.555	-25.6234
20.600000	82.511	-25.5339
20.900000	82.455	-25.4129
21.200001	82.395	-25.2741
21.400000	82.356	-25.1764
21.799999	82.283	-24.9805
22.000000	82.250	-24.8869
22.400000	82.190	-24.7158
22.700001	82.149	-24.6021
23.000000	82.109	-24.4971
23.299999	82.070	-24.3957
23.600000	82.033	-24.2944
24.000000	81.984	-24.1607
24.299999	81.950	-24.0688
24.700001	81.910	-23.9729
25.000000	81.884	-23.9287
25.400000	81.852	-23.9068
25.799999	81.822	-23.9128
26.200001	81.791	-23.9248
26.500000	81.768	-23.9283
26.900000	81.739	-23.9253
27.200001	81.719	-23.9238
27.600000	81.693	-23.9362
28.000000	81.668	-23.9753
28.500000	81.634	-24.0612
29.000000	81.597	-24.1712
29.500000	81.561	-24.2892
30.000000	81.529	-24.4163
30.400000	81.506	-24.5343
30.700001	81.490	-24.6371
31.100000	81.468	-24.7957
31.500000	81.444	-24.9762
32.000000	81.413	-25.2227
32.500000	81.379	-25.4810
33.000000	81.343	-25.7461
33.500000	81.308	-26.0218
34.000000	81.271	-26.3121
34.500000	81.231	-26.6121
35.000000	81.188	-26.9097
35.500000	81.141	-27.1964
36.000000	81.094	-27.4767
36.500000	81.046	-27.7637
37.000000	80.996	-28.0663
37.500000	80.942	-28.3825
38.200001	80.857	-28.8358
38.700001	80.790	-29.1657
39.500000	80.675	-29.7057
40.000000	80.598	-30.0385
40.599998	80.501	-30.4126
41.200001	80.405	-30.7523
41.799999	80.311	-31.0613
42.500000	80.201	-31.3818
43.099998	80.104	-31.6163
43.700001	80.006	-31.8205
44.400002	79.890	-32.0437
45.000000	79.787	-32.2349
45.500000	79.698	-32.3930
46.200001	79.571	-32.6020
46.799999	79.460	-32.7558
47.500000	79.331	-32.8851
48.200001	79.206	-32.9492
48.700001	79.120	-32.9596
49.400002	79.000	-32.9384
50.000000	78.894	-32.8968
50.799999	78.745	-32.8210
51.500000	78.612	-32.7479
52.200001	78.481	-32.6707
53.000000	78.335	-32.5597
53.799999	78.193	-32.4016
54.500000	78.074	-32.2200
55.200001	77.961	-32.0074
56.000000	77.838	-31.7391
57.000000	77.689	-31.3680
58.000000	77.545	-30.9616
59.000000	77.407	-30.5342
60.000000	77.272	-30.0839
60.799999	77.167	-29.7099
61.500000	77.077	-29.3754
62.200001	76.990	-29.0324
63.000000	76.895	-28.6272
64.000000	76.788	-28.1041
65.000000	76.690	-27.5808
66.000000	76.597	-27.0739
67.000000	76.502	-26.5772
68.000000	76.408	-26.0713
69.000000	76.316	-25.5448
70.000000	76.228	-25.0135
71.000000	76.144	-24.4929
72.000000	76.067	-23.9675
73.000000	75.996	-23.4216
74.000000	75.930	-22.8772
75.000000	75.863	-22.3677
76.199997	75.785	-21.8006
77.500000	75.711	-21.2085
78.800003	75.647	-20.6354
80.000000	75.594	-20.1254
81.199997	75.541	-19.6239
82.500000	75.482	-19.0778
83.800003	75.421	-18.5424
85.000000	75.363	-18.0792
86.199997	75.304	-17.6331
87.500000	75.242	-17.1525
88.500000	75.196	-16.7878
90.000000	75.131	-16.2572
91.199997	75.082	-15.8337
92.500000	75.030	-15.3631
93.800003	74.980	-14.8761
95.000000	74.937	-14.4147
96.199997	74.893	-13.9664
97.500000	74.842	-13.5237
98.800003	74.789	-13.1224
100.000000	74.742	-12.7688
101.500000	74.689	-12.3295
103.000000	74.636	-11.8784
104.400002	74.583	-11.4480
106.000000	74.516	-10.9618
107.500000	74.452	-10.5067
109.000000	74.389	-10.0396
110.599998	74.323	-9.5172
112.000000	74.265	-9.0246
113.800003	74.193	-8.3509
115.000000	74.143	-7.9074
117.199997	74.051	-7.1571
118.000000	74.017	-6.8961
120.599998	73.916	-5.9947
122.000000	73.865	-5.4585
124.099998	73.793	-4.6332
125.000000	73.764	-4.2773
126.500000	73.717	-3.6711
128.000000	73.673	-3.0518
131.500000	73.585	-1.6276
132.000000	73.573	-1.4195
134.000000	73.526	-0.5577
136.000000	73.479	0.3343
138.000000	73.433	1.2251
140.000000	73.388	2.0808
143.000000	73.324	3.3478
145.000000	73.290	4.2473
147.500000	73.252	5.4330
150.000000	73.222	6.6347
152.500000	73.208	7.8322
155.000000	73.203	8.9741
157.500000	73.206	10.0443
160.000000	73.219	11.0985
162.500000	73.241	12.1432
165.000000	73.273	13.1610
167.500000	73.320	14.1433
170.000000	73.377	15.0858
172.500000	73.436	15.9878
175.000000	73.497	16.8279
177.500000	73.562	17.6024
180.000000	73.632	18.3448
182.500000	73.702	19.0691
185.000000	73.767	19.7473
187.500000	73.825	20.3619
190.000000	73.878	20.9266
192.500000	73.932	21.4509
195.000000	73.996	21.9460
197.500000	74.077	22.4320
200.000000	74.173	22.9026
203.000000	74.309	23.3936
206.000000	74.458	23.7711
209.000000	74.608	24.0658
212.000000	74.748	24.3063
214.000000	74.833	24.4428
218.000000	74.982	24.6826
220.000000	75.049	24.7976
224.000000	75.172	25.0190
227.000000	75.256	25.1562
230.000000	75.332	25.2494
233.000000	75.400	25.3033
236.000000	75.460	25.3441
240.000000	75.534	25.4124
243.000000	75.581	25.4733
247.000000	75.631	25.5584
250.000000	75.659	25.6180
254.000000	75.689	25.6901
258.000000	75.712	25.7618
262.000000	75.726	25.8462
265.000000	75.731	25.9291
269.000000	75.729	26.0721
272.000000	75.722	26.1977
276.000000	75.706	26.3721
280.000000	75.685	26.5529
285.000000	75.652	26.8309
290.000000	75.616	27.1861
295.000000	75.574	27.5836
300.000000	75.520	28.0054
304.000000	75.474	28.3685
307.000000	75.440	28.6601
311.000000	75.398	29.0694
315.000000	75.358	29.4879
320.000000	75.312	30.0275
325.000000	75.267	30.5792
330.000000	75.223	31.1134
335.000000	75.180	31.6420
340.000000	75.138	32.1928
345.000000	75.095	32.7671
350.000000	75.054	33.3685
355.000000	75.015	33.9889
360.000000	74.976	34.5909
365.000000	74.940	35.1685
370.000000	74.910	35.7501
375.000000	74.883	36.3450
382.000000	74.843	37.1788
387.000000	74.812	37.7402
395.000000	74.764	38.5499
400.000000	74.739	39.0250
406.000000	74.715	39.5679
412.000000	74.693	40.1041
418.000000	74.668	40.6290
425.000000	74.634	41.1521
431.000000	74.608	41.5129
437.000000	74.585	41.8210
444.000000	74.561	42.1469
450.000000	74.542	42.4154
455.000000	74.528	42.6348
462.000000	74.509	42.9301
468.000000	74.489	43.1555
475.000000	74.455	43.3786
482.000000	74.414	43.5787
487.000000	74.382	43.7285
494.000000	74.332	43.9471
500.000000	74.285	44.1144
508.000000	74.219	44.2881
515.000000	74.157	44.4091
522.000000	74.090	44.5190
530.000000	74.004	44.6554
538.000000	73.907	44.8028
545.000000	73.813	44.9223
552.000000	73.712	45.0485
560.000000	73.594	45.2339
570.000000	73.442	45.5386
580.000000	73.289	45.9194
590.000000	73.136	46.3900
600.000000	72.979	46.9826
608.000000	72.849	47.5233
615.000000	72.732	48.0380
622.000000	72.616	48.6045
630.000000	72.492	49.3127
640.000000	72.351	50.2516
650.000000	72.213	51.2389
660.000000	72.069	52.2968
670.000000	71.917	53.3900
680.000000	71.768	54.4926
690.000000	71.630	55.6547
700.000000	71.506	56.8767
710.000000	71.394	58.1046
720.000000	71.288	59.3071
730.000000	71.185	60.4872
740.000000	71.087	61.6751
750.000000	70.999	62.8796
762.000000	70.907	64.3419
775.000000	70.823	65.9719
788.000000	70.749	67.6941
800.000000	70.696	69.3793
812.000000	70.665	71.1314
825.000000	70.659	73.0790
838.000000	70.676	75.0471
850.000000	70.705	76.8577
862.000000	70.739	78.6869
875.000000	70.782	80.7048
885.000000	70.819	82.2520
900.000000	70.876	84.5396
912.000000	70.919	86.3540
925.000000	70.961	88.2749
938.000000	70.997	90.1191
950.000000	71.025	91.7621
962.000000	71.052	93.3707
975.000000	71.083	95.0953
988.000000	71.119	96.7963
1000.000000	71.160	98.3226
1015.000000	71.221	100.1254
1030.000000	71.289	101.8247
1044.000000	71.354	103.3690
1060.000000	71.426	105.1162
1075.000000	71.494	106.7045
1090.000000	71.566	108.2321
1106.000000	71.650	109.8176
1120.000000	71.727	111.1579
1138.000000	71.830	112.7851
1150.000000	71.901	113.8101
1172.000000	72.035	115.5761
1180.000000	72.083	116.1848
1206.000000	72.236	118.0516
1220.000000	72.319	118.9874
1241.000000	72.443	120.3154
1250.000000	72.499	120.8708
1265.000000	72.594	121.7988
1280.000000	72.691	122.7409
1315.000000	72.894	125.0087
1320.000000	72.916	125.3407
1340.000000	72.979	126.7056
1360.000000	72.992	128.1419
1380.000000	72.962	129.6212
1400.000000	72.913	131.1281
1430.000000	72.858	133.5131
1450.000000	72.849	135.2246
1475.000000	72.876	137.4662
1500.000000	72.942	139.7830
1525.000000	73.045	142.1499
1550.000000	73.183	144.4946
1575.000000	73.348	146.7105
1600.000000	73.526	148.7291
1625.000000	73.704	150.5312
1650.000000	73.876	152.1365
1675.000000	74.041	153.6148
1700.000000	74.198	155.0110
1725.000000	74.355	156.3212
1750.000000	74.513	157.5311
1775.000000	74.670	158.6370
1800.000000	74.825	159.6339
1825.000000	74.981	160.5111
1850.000000	75.138	161.2849
1875.000000	75.291	162.0054
1900.000000	75.432	162.7072
1925.000000	75.566	163.4056
1950.000000	75.699	164.1156
1975.000000	75.837	164.8239
2000.000000	75.983	165.5219
2030.000000	76.163	166.3368
2060.000000	76.341	167.1109
2090.000000	76.518	167.8487
2120.000000	76.689	168.5537
2140.000000	76.799	169.0052
2180.000000	77.005	169.8978
2200.000000	77.105	170.3475
2240.000000	77.297	171.2311
2270.000000	77.438	171.8558
2300.000000	77.574	172.4370
2330.000000	77.704	172.9657
2360.000000	77.826	173.4346
2400.000000	77.976	173.9800
2430.000000	78.082	174.3580
2470.000000	78.216	174.8390
2500.000000	78.312	175.1620
2540.000000	78.438	175.5063
2580.000000	78.563	175.7392
2620.000000	78.683	175.8698
2650.000000	78.767	175.8868
2690.000000	78.867	175.7816
2720.000000	78.929	175.6303
2760.000000	78.987	175.3598
2800.000000	79.011	175.0285
2850.000000	78.990	174.6877
2900.000000	78.946	174.6567
2950.000000	78.916	174.7532
3000.000000	78.873	174.7907
3040.000000	78.830	174.8357
3070.000000	78.794	174.8081
3110.000000	78.726	174.6990
3150.000000	78.629	174.6312
3200.000000	78.476	174.7099
3250.000000	78.306	174.9770
3300.000000	78.124	175.4366
3350.000000	77.932	176.0999
3400.000000	77.736	176.9490
3450.000000	77.542	177.9497
3500.000000	77.352	179.0746
3550.000000	77.168	-179.6889
3600.000000	76.996	-178.3172
3650.000000	76.840	-176.8110
3700.000000	76.707	-175.1921
3750.000000	76.600	-173.4786
3820.000000	76.491	-170.9558
3870.000000	76.445	-169.0858
3950.000000	76.421	-166.0256
4000.000000	76.432	-164.0922
4060.000000	76.464	-161.7705
4120.000000	76.514	-159.4777
4180.000000	76.581	-157.2347
4250.000000	76.682	-154.6935
4310.000000	76.794	-152.6115
4370.000000	76.940	-150.6685
4440.000000	77.163	-148.6354
4500.000000	77.404	-147.1216
4550.000000	77.639	-146.0417
4620.000000	78.014	-144.8608
4680.000000	78.362	-144.2074
4750.000000	78.779	-143.9094
4820.000000	79.189	-144.1298
4870.000000	79.465	-144.5944
4940.000000	79.810	-145.6343
5000.000000	80.062	-146.8224
5080.000000	80.327	-148.6898
5150.000000	80.493	-150.4629
5220.000000	80.602	-152.2615
5300.000000	80.671	-154.2925
5380.000000	80.689	-156.3170
5450.000000	80.661	-158.0900
5520.000000	80.592	-159.8049
5600.000000	80.473	-161.5758
5700.000000	80.301	-163.4180
5800.000000	80.140	-165.0018
5900.000000	80.001	-166.5556
6000.000000	79.866	-168.1738
6080.000000	79.740	-169.4919
6150.000000	79.605	-170.6063
6220.000000	79.449	-171.6405
6300.000000	79.251	-172.7105
6400.000000	78.996	-173.9042
6500.000000	78.752	-174.9883
6600.000000	78.530	-176.0530
6700.000000	78.334	-177.2362
6800.000000	78.158	-178.6990
6900.000000	77.987	179.4503
7000.000000	77.802	177.1492
7100.000000	77.578	174.3725
7200.000000	77.289	171.1302
7300.000000	76.897	167.5192
7400.000000	76.365	163.7887
7500.000000	75.673	160.2917
7620.000000	74.630	156.9996
7750.000000	73.276	155.2726
7880.000000	71.732	156.0319
8000.000000	70.175	159.6647
8120.000000	68.637	166.7022
8250.000000	67.247	177.6844
8380.000000	66.384	-169.3986
8500.000000	66.166	-157.3065
8620.000000	66.477	-146.5943
8750.000000	67.231	-137.6984
8850.000000	67.960	-132.9516
9000.000000	69.084	-128.8906
9120.000000	69.901	-127.7800
9250.000000	70.630	-128.1123
9380.000000	71.172	-129.4567
9500.000000	71.513	-131.1281
9620.000000	71.723	-132.8774
9750.000000	71.831	-134.6040
9880.000000	71.846	-135.9848
10000.000000	71.807	-136.8808
10150.000000	71.726	-137.4786
10300.000000	71.641	-137.5319
10440.000000	71.577	-137.1584
10600.000000	71.551	-136.3616
10750.000000	71.591	-135.3835
10900.000000	71.702	-134.2811
11060.000000	71.906	-133.0613
11200.000000	72.159	-132.0286
11380.000000	72.592	-130.8540
11500.000000	72.953	-130.2370
11720.000000	73.795	-129.6873
11800.000000	74.165	-129.7654
12060.000000	75.599	-131.6996
12200.000000	76.487	-134.2853
12410.000000	77.841	-140.9855
12500.000000	78.369	-145.0273
12650.000000	79.076	-153.2854
12800.000000	79.454	-163.1035
13150.000000	78.596	172.5430
13200.000000	78.273	169.4394
13400.000000	76.586	159.1057
13600.000000	74.494	152.7661
13800.000000	72.317	150.4989
14000.000000	70.345	151.8023
14300.000000	68.223	158.6552
14500.000000	67.516	165.0364
14750.000000	67.424	173.1228
15000.000000	68.037	179.3515
15250.000000	69.056	-177.9023
15500.000000	70.191	-179.3409
15750.000000	71.243	175.1835
16000.000000	72.092	166.3696
16250.000000	72.657	155.2193
16500.000000	72.893	142.7720
16750.000000	72.777	129.8808
17000.000000	72.308	117.2595
17250.000000	71.500	105.6532
17500.000000	70.407	95.6901
17750.000000	69.127	87.7252
18000.000000	67.776	81.8154
18250.000000	66.443	77.7628
18500.000000	65.170	75.1822
18750.000000	63.959	73.6360
19000.000000	62.794	72.7566
19250.000000	61.646	72.1634
19500.000000	60.500	71.5378
19750.000000	59.441	70.7625
20000.000000	58.761	70.1227
