* Measurement data measured by REW V5.31.3
* Source: Microphone (6- USB Sound Device        ), MICROPHONE (Master Volume), L, volume: 0.700
* Format: 256k Log Swept Sine, 1 sweep at -12.0 dBFS with no timing reference
* Dated: 04-Mar-2025 19:15:34
* REW Settings:
*  C-weighting compensation: Off
*  Target level: 75.0 dB
* Note: 
* Measurement: HFBP4 B
* Smoothing: 1/12 octave
* Frequency Step: 1/48 octave
* Start Frequency: 20.300 Hz
*
* Freq(Hz)	SPL(dB)	Phase(degrees)
20.299999	81.952	-21.9899
20.600000	81.918	-21.8506
20.900000	81.874	-21.6667
21.200001	81.828	-21.4609
21.400000	81.799	-21.3190
21.799999	81.746	-21.0410
22.000000	81.724	-20.9112
22.400000	81.686	-20.6782
22.700001	81.661	-20.5253
23.000000	81.639	-20.3843
23.299999	81.617	-20.2470
23.600000	81.596	-20.1079
24.000000	81.570	-19.9193
24.299999	81.553	-19.7819
24.700001	81.533	-19.6180
25.000000	81.521	-19.5160
25.400000	81.508	-19.4087
25.799999	81.499	-19.3270
26.200001	81.493	-19.2627
26.500000	81.491	-19.2252
26.900000	81.491	-19.1943
27.200001	81.493	-19.1889
27.600000	81.496	-19.2056
28.000000	81.497	-19.2420
28.500000	81.495	-19.2974
29.000000	81.493	-19.3548
29.500000	81.496	-19.4278
30.000000	81.503	-19.5395
30.400000	81.510	-19.6629
30.700001	81.515	-19.7717
31.100000	81.522	-19.9295
31.500000	81.528	-20.0930
32.000000	81.537	-20.3000
32.500000	81.549	-20.5165
33.000000	81.562	-20.7551
33.500000	81.574	-21.0264
34.000000	81.584	-21.3383
34.500000	81.592	-21.6959
35.000000	81.597	-22.0971
35.500000	81.596	-22.5255
36.000000	81.590	-22.9548
36.500000	81.582	-23.3641
37.000000	81.574	-23.7524
37.500000	81.564	-24.1350
38.200001	81.546	-24.6897
38.700001	81.526	-25.1013
39.500000	81.491	-25.7753
40.000000	81.470	-26.2137
40.599998	81.447	-26.7757
41.200001	81.423	-27.3795
41.799999	81.392	-28.0001
42.500000	81.346	-28.6946
43.099998	81.298	-29.2408
43.700001	81.248	-29.7537
44.400002	81.189	-30.3480
45.000000	81.136	-30.8727
45.500000	81.088	-31.3159
46.200001	81.019	-31.9237
46.799999	80.961	-32.4194
47.500000	80.896	-32.9723
48.200001	80.834	-33.5174
48.700001	80.788	-33.9119
49.400002	80.720	-34.4768
50.000000	80.653	-34.9728
50.799999	80.550	-35.6400
51.500000	80.452	-36.2084
52.200001	80.354	-36.7510
53.000000	80.245	-37.3556
53.799999	80.136	-37.9585
54.500000	80.041	-38.4756
55.200001	79.946	-38.9706
56.000000	79.834	-39.5045
57.000000	79.688	-40.1359
58.000000	79.535	-40.7451
59.000000	79.377	-41.3166
60.000000	79.215	-41.8418
60.799999	79.082	-42.2414
61.500000	78.967	-42.5791
62.200001	78.852	-42.9026
63.000000	78.724	-43.2490
64.000000	78.565	-43.6398
65.000000	78.405	-43.9884
66.000000	78.244	-44.2974
67.000000	78.081	-44.5541
68.000000	77.913	-44.7645
69.000000	77.742	-44.9587
70.000000	77.566	-45.1419
71.000000	77.391	-45.2948
72.000000	77.220	-45.4049
73.000000	77.052	-45.4689
74.000000	76.886	-45.4869
75.000000	76.721	-45.4667
76.199997	76.526	-45.4204
77.500000	76.318	-45.3593
78.800003	76.113	-45.2639
80.000000	75.927	-45.1495
81.199997	75.746	-45.0353
82.500000	75.556	-44.9047
83.800003	75.369	-44.7384
85.000000	75.198	-44.5424
86.199997	75.028	-44.3095
87.500000	74.843	-44.0219
88.500000	74.702	-43.7856
90.000000	74.497	-43.4248
91.199997	74.336	-43.1231
92.500000	74.163	-42.7689
93.800003	73.992	-42.3818
95.000000	73.831	-41.9861
96.199997	73.670	-41.5682
97.500000	73.501	-41.1153
98.800003	73.340	-40.6534
100.000000	73.196	-40.2072
101.500000	73.016	-39.6253
103.000000	72.836	-39.0190
104.400002	72.667	-38.4229
106.000000	72.474	-37.6868
107.500000	72.299	-36.9546
109.000000	72.134	-36.2051
110.599998	71.967	-35.4003
112.000000	71.824	-34.6921
113.800003	71.644	-33.7488
115.000000	71.528	-33.0979
117.199997	71.324	-31.8754
118.000000	71.254	-31.4207
120.599998	71.029	-29.8956
122.000000	70.908	-29.0391
124.099998	70.729	-27.7263
125.000000	70.655	-27.1684
126.500000	70.535	-26.2490
128.000000	70.424	-25.3186
131.500000	70.199	-23.0440
132.000000	70.169	-22.7147
134.000000	70.053	-21.4062
136.000000	69.946	-20.1268
138.000000	69.849	-18.8863
140.000000	69.760	-17.6503
143.000000	69.634	-15.7264
145.000000	69.557	-14.4267
147.500000	69.471	-12.8499
150.000000	69.410	-11.3472
152.500000	69.361	-9.8261
155.000000	69.311	-8.2164
157.500000	69.264	-6.6273
160.000000	69.225	-5.1394
162.500000	69.201	-3.7524
165.000000	69.193	-2.3995
167.500000	69.200	-1.0681
170.000000	69.217	0.2158
172.500000	69.237	1.4224
175.000000	69.255	2.5804
177.500000	69.264	3.7166
180.000000	69.266	4.8372
182.500000	69.263	5.9666
185.000000	69.254	7.0761
187.500000	69.239	8.1191
190.000000	69.223	9.0952
192.500000	69.213	10.0154
195.000000	69.219	10.8788
197.500000	69.245	11.6942
200.000000	69.290	12.4737
203.000000	69.360	13.3744
206.000000	69.433	14.2353
209.000000	69.504	15.0434
212.000000	69.566	15.8104
214.000000	69.602	16.3091
218.000000	69.657	17.2732
220.000000	69.680	17.7312
224.000000	69.713	18.6131
227.000000	69.725	19.2499
230.000000	69.729	19.8631
233.000000	69.731	20.4542
236.000000	69.736	21.0290
240.000000	69.746	21.7706
243.000000	69.751	22.3179
247.000000	69.749	23.0552
250.000000	69.744	23.6285
254.000000	69.735	24.4270
258.000000	69.725	25.2279
262.000000	69.712	26.0081
265.000000	69.700	26.5945
269.000000	69.684	27.4150
272.000000	69.670	28.0638
276.000000	69.653	28.9397
280.000000	69.641	29.8114
285.000000	69.630	30.9076
290.000000	69.619	32.0220
295.000000	69.614	33.1524
300.000000	69.613	34.2843
304.000000	69.611	35.1918
307.000000	69.611	35.8667
311.000000	69.618	36.7624
315.000000	69.632	37.6750
320.000000	69.655	38.8355
325.000000	69.678	39.9872
330.000000	69.701	41.1172
335.000000	69.730	42.1973
340.000000	69.769	43.2273
345.000000	69.816	44.2539
350.000000	69.864	45.2645
355.000000	69.913	46.2349
360.000000	69.969	47.1937
365.000000	70.030	48.1581
370.000000	70.092	49.0933
375.000000	70.153	49.9956
382.000000	70.245	51.2049
387.000000	70.318	52.0217
395.000000	70.443	53.2755
400.000000	70.524	54.0364
406.000000	70.626	54.9149
412.000000	70.725	55.7336
418.000000	70.819	56.4906
425.000000	70.921	57.2948
431.000000	71.004	57.9358
437.000000	71.082	58.5467
444.000000	71.165	59.2211
450.000000	71.229	59.7845
455.000000	71.278	60.2626
462.000000	71.341	60.9336
468.000000	71.390	61.4964
475.000000	71.445	62.1289
482.000000	71.498	62.7357
487.000000	71.533	63.1410
494.000000	71.573	63.6690
500.000000	71.601	64.1072
508.000000	71.635	64.6726
515.000000	71.660	65.1403
522.000000	71.678	65.5931
530.000000	71.692	66.0968
538.000000	71.701	66.5932
545.000000	71.707	67.0386
552.000000	71.711	67.4934
560.000000	71.712	68.0122
570.000000	71.702	68.6770
580.000000	71.678	69.4460
590.000000	71.642	70.3046
600.000000	71.599	71.2125
608.000000	71.557	71.9879
615.000000	71.516	72.6766
622.000000	71.473	73.3524
630.000000	71.425	74.1114
640.000000	71.365	75.0976
650.000000	71.297	76.1770
660.000000	71.220	77.3201
670.000000	71.144	78.4868
680.000000	71.073	79.6464
690.000000	71.013	80.7857
700.000000	70.967	81.8928
710.000000	70.935	82.9846
720.000000	70.913	84.0805
730.000000	70.896	85.1918
740.000000	70.879	86.3220
750.000000	70.862	87.4630
762.000000	70.844	88.8376
775.000000	70.834	90.3613
788.000000	70.832	91.9439
800.000000	70.843	93.4401
812.000000	70.870	94.9593
825.000000	70.918	96.6074
838.000000	70.985	98.2027
850.000000	71.057	99.6219
862.000000	71.134	101.0324
875.000000	71.215	102.5740
885.000000	71.274	103.7645
900.000000	71.353	105.5140
912.000000	71.415	106.8663
925.000000	71.481	108.2963
938.000000	71.545	109.6883
950.000000	71.600	110.9434
962.000000	71.648	112.1776
975.000000	71.692	113.5025
988.000000	71.733	114.7958
1000.000000	71.769	115.9346
1015.000000	71.811	117.2993
1030.000000	71.845	118.6030
1044.000000	71.867	119.7447
1060.000000	71.879	120.9501
1075.000000	71.877	122.0003
1090.000000	71.863	123.0101
1106.000000	71.843	124.0564
1120.000000	71.827	124.9299
1138.000000	71.815	125.9832
1150.000000	71.814	126.6597
1172.000000	71.825	127.8907
1180.000000	71.833	128.3349
1206.000000	71.880	129.7557
1220.000000	71.920	130.4999
1241.000000	72.005	131.5617
1250.000000	72.048	131.9963
1265.000000	72.126	132.7076
1280.000000	72.204	133.4167
1315.000000	72.358	135.0954
1320.000000	72.370	135.3401
1340.000000	72.385	136.3374
1360.000000	72.335	137.3733
1380.000000	72.233	138.4765
1400.000000	72.112	139.6910
1430.000000	71.962	141.7321
1450.000000	71.907	143.2111
1475.000000	71.892	145.1258
1500.000000	71.926	147.0478
1525.000000	71.994	149.0023
1550.000000	72.092	151.0052
1575.000000	72.217	153.0023
1600.000000	72.366	154.9085
1625.000000	72.529	156.6622
1650.000000	72.690	158.2217
1675.000000	72.847	159.6039
1700.000000	72.999	160.8824
1725.000000	73.143	162.1323
1750.000000	73.279	163.3849
1775.000000	73.410	164.6151
1800.000000	73.543	165.7832
1825.000000	73.682	166.8624
1850.000000	73.826	167.8651
1875.000000	73.970	168.8188
1900.000000	74.110	169.7225
1925.000000	74.247	170.5562
1950.000000	74.389	171.3255
1975.000000	74.541	172.0830
2000.000000	74.703	172.8747
2030.000000	74.906	173.8516
2060.000000	75.115	174.8095
2090.000000	75.328	175.7219
2120.000000	75.547	176.6253
2140.000000	75.693	177.2428
2180.000000	75.976	178.5041
2200.000000	76.107	179.1303
2240.000000	76.341	-179.6411
2270.000000	76.491	-178.7360
2300.000000	76.621	-177.8393
2330.000000	76.732	-176.9588
2360.000000	76.828	-176.1031
2400.000000	76.942	-174.9716
2430.000000	77.025	-174.1071
2470.000000	77.134	-172.9337
2500.000000	77.215	-172.0622
2540.000000	77.328	-170.9664
2580.000000	77.450	-169.9647
2620.000000	77.579	-169.0741
2650.000000	77.676	-168.4969
2690.000000	77.802	-167.8560
2720.000000	77.889	-167.4528
2760.000000	77.986	-166.9819
2800.000000	78.059	-166.5473
2850.000000	78.122	-165.9510
2900.000000	78.180	-165.1376
2950.000000	78.259	-164.3169
3000.000000	78.332	-163.6368
3040.000000	78.389	-163.1195
3070.000000	78.430	-162.8311
3110.000000	78.466	-162.5778
3150.000000	78.477	-162.3551
3200.000000	78.466	-162.0037
3250.000000	78.437	-161.5439
3300.000000	78.397	-160.9883
3350.000000	78.345	-160.3608
3400.000000	78.284	-159.6506
3450.000000	78.217	-158.8397
3500.000000	78.145	-157.9348
3550.000000	78.066	-156.9530
3600.000000	77.985	-155.9006
3650.000000	77.910	-154.7890
3700.000000	77.849	-153.6246
3750.000000	77.808	-152.3870
3820.000000	77.784	-150.5221
3870.000000	77.789	-149.1260
3950.000000	77.823	-146.8293
4000.000000	77.856	-145.3597
4060.000000	77.903	-143.5707
4120.000000	77.956	-141.7768
4180.000000	78.018	-139.9882
4250.000000	78.105	-137.9420
4310.000000	78.202	-136.2639
4370.000000	78.328	-134.6880
4440.000000	78.523	-133.0313
4500.000000	78.733	-131.8219
4550.000000	78.936	-131.0014
4620.000000	79.247	-130.1688
4680.000000	79.522	-129.7599
4750.000000	79.837	-129.6484
4820.000000	80.130	-129.9250
4870.000000	80.316	-130.3295
4940.000000	80.534	-131.1094
5000.000000	80.676	-131.8922
5080.000000	80.804	-132.9501
5150.000000	80.871	-133.8000
5220.000000	80.913	-134.5448
5300.000000	80.948	-135.2761
5380.000000	80.975	-135.9674
5450.000000	80.985	-136.5916
5520.000000	80.981	-137.2026
5600.000000	80.971	-137.8178
5700.000000	80.971	-138.4664
5800.000000	81.000	-139.1411
5900.000000	81.047	-139.9830
6000.000000	81.083	-140.9778
6080.000000	81.088	-141.8147
6150.000000	81.073	-142.5206
6220.000000	81.044	-143.1664
6300.000000	81.001	-143.8139
6400.000000	80.955	-144.5094
6500.000000	80.935	-145.1569
6600.000000	80.953	-145.9029
6700.000000	81.014	-146.9152
6800.000000	81.113	-148.3539
6900.000000	81.227	-150.3458
7000.000000	81.326	-152.9468
7100.000000	81.385	-156.1597
7200.000000	81.371	-159.9589
7300.000000	81.249	-164.2100
7400.000000	80.987	-168.6439
7500.000000	80.576	-172.9254
7620.000000	79.893	-177.3541
7750.000000	78.952	179.2692
7880.000000	77.824	177.7724
8000.000000	76.648	178.5958
8120.000000	75.459	-178.1503
8250.000000	74.349	-172.3252
8380.000000	73.584	-165.1114
8500.000000	73.271	-158.1516
8620.000000	73.340	-151.8685
8750.000000	73.741	-146.7243
8850.000000	74.173	-144.2043
9000.000000	74.850	-142.6484
9120.000000	75.319	-142.9771
9250.000000	75.690	-144.4216
9380.000000	75.904	-146.5040
9500.000000	75.973	-148.6044
9620.000000	75.941	-150.6002
9750.000000	75.823	-152.4678
9880.000000	75.648	-153.9469
10000.000000	75.461	-154.9538
10150.000000	75.223	-155.7777
10300.000000	75.000	-156.1771
10440.000000	74.813	-156.2308
10600.000000	74.638	-156.0350
10750.000000	74.525	-155.6962
10900.000000	74.472	-155.2578
11060.000000	74.484	-154.7139
11200.000000	74.554	-154.2034
11380.000000	74.737	-153.5325
11500.000000	74.926	-153.1079
11720.000000	75.448	-152.6036
11800.000000	75.704	-152.6049
12060.000000	76.800	-153.9622
12200.000000	77.537	-156.0603
12410.000000	78.728	-161.8867
12500.000000	79.209	-165.5413
12650.000000	79.868	-173.2142
12800.000000	80.227	177.4021
13150.000000	79.365	153.3457
13200.000000	79.038	150.2326
13400.000000	77.317	139.8334
13600.000000	75.158	133.4785
13800.000000	72.887	131.3276
14000.000000	70.802	132.8635
14300.000000	68.500	140.1934
14500.000000	67.674	147.0104
14750.000000	67.442	155.8699
15000.000000	67.947	163.1659
15250.000000	68.926	167.2124
15500.000000	70.104	167.0753
15750.000000	71.268	162.6709
16000.000000	72.270	154.6600
16250.000000	73.017	144.0593
16500.000000	73.464	131.8284
16750.000000	73.583	118.7453
17000.000000	73.339	105.4808
17250.000000	72.711	92.8082
17500.000000	71.735	81.5500
17750.000000	70.508	72.2905
18000.000000	69.160	65.2276
18250.000000	67.805	60.1907
18500.000000	66.513	56.7632
18750.000000	65.302	54.4497
19000.000000	64.165	52.7767
19250.000000	63.078	51.3103
19500.000000	62.017	49.7215
19750.000000	61.045	47.9896
20000.000000	60.424	46.7109
