* Measurement data measured by REW V5.30
* Source: Microphone (4- USB Audio Device), MICROPHONE (Master Volume), R, volume: 0.250
* Format: 256k Log Swept Sine, 1 sweep at -12.0 dBFS with no timing reference
* Dated: 27-Dec-2023 10:52:37
* REW Settings:
*  C-weighting compensation: Off
*  Target level: 75.0 dB
* Note: 
* Measurement: Hidizs MS3 Red L
* Smoothing: 1/12 octave
* Frequency Step: 1/48 octave
* Start Frequency: 20.300 Hz
*
* Freq(Hz)	SPL(dB)	Phase(degrees)
20.299999	74.086	-99.2853
20.600000	74.152	-99.9510
20.900000	74.235	-100.7916
21.200001	74.323	-101.6977
21.400000	74.384	-102.3146
21.799999	74.506	-103.5498
22.000000	74.567	-104.1599
22.400000	74.690	-105.3526
22.700001	74.780	-106.2190
23.000000	74.867	-107.0637
23.299999	74.951	-107.8929
23.600000	75.031	-108.7149
24.000000	75.133	-109.8123
24.299999	75.207	-110.6408
24.700001	75.303	-111.7499
25.000000	75.375	-112.5775
25.400000	75.470	-113.6602
25.799999	75.566	-114.7038
26.200001	75.658	-115.6992
26.500000	75.724	-116.4149
26.900000	75.806	-117.3367
27.200001	75.862	-118.0121
27.600000	75.931	-118.9048
28.000000	75.993	-119.8002
28.500000	76.066	-120.9318
29.000000	76.136	-122.0712
29.500000	76.204	-123.2012
30.000000	76.272	-124.3061
30.400000	76.324	-125.1682
30.700001	76.362	-125.8036
31.100000	76.411	-126.6392
31.500000	76.458	-127.4639
32.000000	76.515	-128.4774
32.500000	76.569	-129.4646
33.000000	76.623	-130.4188
33.500000	76.675	-131.3403
34.000000	76.724	-132.2362
34.500000	76.769	-133.1144
35.000000	76.811	-133.9799
35.500000	76.850	-134.8335
36.000000	76.889	-135.6729
36.500000	76.926	-136.4945
37.000000	76.963	-137.2944
37.500000	76.998	-138.0712
38.200001	77.044	-139.1243
38.700001	77.074	-139.8585
39.500000	77.122	-141.0120
40.000000	77.150	-141.7199
40.599998	77.182	-142.5527
41.200001	77.213	-143.3643
41.799999	77.242	-144.1556
42.500000	77.275	-145.0594
43.099998	77.302	-145.8225
43.700001	77.328	-146.5764
44.400002	77.357	-147.4424
45.000000	77.379	-148.1720
45.500000	77.397	-148.7708
46.200001	77.420	-149.5976
46.799999	77.437	-150.2993
47.500000	77.453	-151.1112
48.200001	77.466	-151.9081
48.700001	77.474	-152.4628
49.400002	77.486	-153.2198
50.000000	77.496	-153.8555
50.799999	77.507	-154.6893
51.500000	77.514	-155.4069
52.200001	77.518	-156.1170
53.000000	77.522	-156.9233
53.799999	77.523	-157.7197
54.500000	77.522	-158.4026
55.200001	77.519	-159.0703
56.000000	77.515	-159.8148
57.000000	77.509	-160.7211
58.000000	77.502	-161.6065
59.000000	77.493	-162.4733
60.000000	77.483	-163.3212
60.799999	77.475	-163.9857
61.500000	77.466	-164.5560
62.200001	77.456	-165.1156
63.000000	77.445	-165.7431
64.000000	77.430	-166.5115
65.000000	77.414	-167.2616
66.000000	77.396	-167.9930
67.000000	77.377	-168.7081
68.000000	77.357	-169.4082
69.000000	77.335	-170.0915
70.000000	77.312	-170.7557
71.000000	77.287	-171.4013
72.000000	77.260	-172.0300
73.000000	77.233	-172.6427
74.000000	77.206	-173.2404
75.000000	77.179	-173.8239
76.199997	77.146	-174.5060
77.500000	77.108	-175.2215
78.800003	77.070	-175.9127
80.000000	77.034	-176.5311
81.199997	76.998	-177.1314
82.500000	76.958	-177.7632
83.800003	76.918	-178.3751
85.000000	76.881	-178.9185
86.199997	76.845	-179.4414
87.500000	76.806	-179.9897
88.500000	76.777	179.5977
90.000000	76.733	178.9926
91.199997	76.698	178.5212
92.500000	76.660	178.0244
93.800003	76.623	177.5417
95.000000	76.589	177.1078
96.199997	76.554	176.6838
97.500000	76.516	176.2351
98.800003	76.477	175.7974
100.000000	76.442	175.4034
101.500000	76.397	174.9245
103.000000	76.354	174.4587
104.400002	76.314	174.0333
106.000000	76.268	173.5512
107.500000	76.225	173.1008
109.000000	76.182	172.6569
110.599998	76.135	172.1965
112.000000	76.093	171.8038
113.800003	76.040	171.3084
115.000000	76.005	170.9844
117.199997	75.939	170.4062
118.000000	75.916	170.2004
120.599998	75.839	169.5440
122.000000	75.798	169.1976
124.099998	75.735	168.6894
125.000000	75.709	168.4760
126.500000	75.663	168.1261
128.000000	75.618	167.7835
131.500000	75.512	167.0133
132.000000	75.497	166.9057
134.000000	75.434	166.4762
136.000000	75.372	166.0462
138.000000	75.310	165.6180
140.000000	75.248	165.1980
143.000000	75.155	164.5896
145.000000	75.093	164.1968
147.500000	75.013	163.7171
150.000000	74.933	163.2491
152.500000	74.852	162.7951
155.000000	74.771	162.3597
157.500000	74.689	161.9474
160.000000	74.607	161.5634
162.500000	74.526	161.2063
165.000000	74.444	160.8737
167.500000	74.361	160.5626
170.000000	74.278	160.2705
172.500000	74.192	159.9980
175.000000	74.105	159.7452
177.500000	74.018	159.5121
180.000000	73.930	159.2986
182.500000	73.843	159.1034
185.000000	73.757	158.9200
187.500000	73.674	158.7396
190.000000	73.594	158.5590
192.500000	73.518	158.3803
195.000000	73.444	158.2092
197.500000	73.373	158.0483
200.000000	73.302	157.8950
203.000000	73.219	157.7123
206.000000	73.137	157.5267
209.000000	73.056	157.3457
212.000000	72.976	157.1786
214.000000	72.924	157.0756
218.000000	72.824	156.8922
220.000000	72.775	156.8119
224.000000	72.681	156.6619
227.000000	72.611	156.5515
230.000000	72.542	156.4428
233.000000	72.472	156.3389
236.000000	72.403	156.2423
240.000000	72.306	156.1224
243.000000	72.230	156.0346
247.000000	72.127	155.9259
250.000000	72.050	155.8608
254.000000	71.951	155.8078
258.000000	71.853	155.8036
262.000000	71.760	155.8522
265.000000	71.692	155.9171
269.000000	71.604	156.0245
272.000000	71.540	156.1122
276.000000	71.453	156.2345
280.000000	71.366	156.3626
285.000000	71.257	156.5264
290.000000	71.152	156.6801
295.000000	71.051	156.8076
300.000000	70.949	156.9073
304.000000	70.866	156.9873
307.000000	70.804	157.0615
311.000000	70.720	157.1815
315.000000	70.637	157.3189
320.000000	70.539	157.5157
325.000000	70.448	157.7522
330.000000	70.362	158.0417
335.000000	70.278	158.3837
340.000000	70.195	158.7562
345.000000	70.115	159.1403
350.000000	70.038	159.5312
355.000000	69.965	159.9307
360.000000	69.895	160.3416
365.000000	69.827	160.7658
370.000000	69.760	161.2005
375.000000	69.694	161.6406
382.000000	69.601	162.2596
387.000000	69.535	162.6963
395.000000	69.429	163.3553
400.000000	69.362	163.7352
406.000000	69.280	164.1848
412.000000	69.199	164.6548
418.000000	69.119	165.1556
425.000000	69.032	165.7829
431.000000	68.964	166.3633
437.000000	68.900	166.9865
444.000000	68.828	167.7433
450.000000	68.768	168.3925
455.000000	68.716	168.9219
462.000000	68.643	169.6359
468.000000	68.579	170.2304
475.000000	68.504	170.9252
482.000000	68.433	171.6349
487.000000	68.387	172.1511
494.000000	68.326	172.8845
500.000000	68.275	173.5243
508.000000	68.207	174.3826
515.000000	68.149	175.1112
522.000000	68.092	175.7855
530.000000	68.028	176.4786
538.000000	67.961	177.1243
545.000000	67.899	177.6815
552.000000	67.838	178.2473
560.000000	67.775	178.9257
570.000000	67.710	179.8624
580.000000	67.651	-179.1168
590.000000	67.587	-178.0654
600.000000	67.520	-176.9854
608.000000	67.468	-176.0736
615.000000	67.427	-175.2263
622.000000	67.391	-174.3367
630.000000	67.354	-173.2884
640.000000	67.310	-171.9746
650.000000	67.265	-170.6948
660.000000	67.219	-169.4692
670.000000	67.175	-168.3128
680.000000	67.133	-167.2164
690.000000	67.092	-166.1466
700.000000	67.056	-165.0793
710.000000	67.027	-164.0053
720.000000	67.005	-162.9258
730.000000	66.987	-161.8390
740.000000	66.972	-160.7426
750.000000	66.962	-159.6418
762.000000	66.960	-158.3190
775.000000	66.967	-156.8955
788.000000	66.980	-155.5025
800.000000	66.996	-154.2446
812.000000	67.018	-152.9957
825.000000	67.048	-151.6215
838.000000	67.088	-150.1906
850.000000	67.138	-148.8249
862.000000	67.198	-147.4450
875.000000	67.269	-145.9527
885.000000	67.326	-144.8015
900.000000	67.423	-143.0245
912.000000	67.518	-141.5377
925.000000	67.634	-139.8958
938.000000	67.753	-138.2696
950.000000	67.862	-136.8094
962.000000	67.972	-135.4058
975.000000	68.096	-133.9426
988.000000	68.223	-132.5240
1000.000000	68.339	-131.2607
1015.000000	68.482	-129.7534
1030.000000	68.624	-128.3254
1044.000000	68.756	-127.0871
1060.000000	68.900	-125.8149
1075.000000	69.026	-124.7607
1090.000000	69.149	-123.8039
1106.000000	69.283	-122.8221
1120.000000	69.401	-121.9636
1138.000000	69.547	-120.8683
1150.000000	69.639	-120.1560
1172.000000	69.802	-118.9145
1180.000000	69.858	-118.4889
1206.000000	70.033	-117.2209
1220.000000	70.121	-116.6352
1241.000000	70.244	-115.9198
1250.000000	70.292	-115.6716
1265.000000	70.367	-115.3093
1280.000000	70.436	-114.9672
1315.000000	70.596	-113.9681
1320.000000	70.619	-113.7839
1340.000000	70.709	-112.9475
1360.000000	70.796	-112.0077
1380.000000	70.876	-111.0327
1400.000000	70.947	-110.0667
1430.000000	71.047	-108.6668
1450.000000	71.111	-107.7683
1475.000000	71.189	-106.6639
1500.000000	71.268	-105.5510
1525.000000	71.353	-104.4320
1550.000000	71.442	-103.3484
1575.000000	71.533	-102.3622
1600.000000	71.621	-101.4853
1625.000000	71.709	-100.6870
1650.000000	71.799	-99.9301
1675.000000	71.890	-99.2006
1700.000000	71.981	-98.5178
1725.000000	72.070	-97.9046
1750.000000	72.155	-97.3383
1775.000000	72.242	-96.7763
1800.000000	72.333	-96.1969
1825.000000	72.422	-95.6193
1850.000000	72.509	-95.0646
1875.000000	72.596	-94.5254
1900.000000	72.682	-93.9904
1925.000000	72.767	-93.4486
1950.000000	72.852	-92.9052
1975.000000	72.937	-92.3757
2000.000000	73.019	-91.8686
2030.000000	73.115	-91.2794
2060.000000	73.212	-90.6739
2090.000000	73.307	-90.0026
2120.000000	73.401	-89.2096
2140.000000	73.466	-88.5896
2180.000000	73.597	-87.1415
2200.000000	73.661	-86.3398
2240.000000	73.785	-84.6347
2270.000000	73.875	-83.2499
2300.000000	73.966	-81.7409
2330.000000	74.061	-80.1277
2360.000000	74.157	-78.5097
2400.000000	74.276	-76.5345
2430.000000	74.359	-75.2174
2470.000000	74.466	-73.5109
2500.000000	74.551	-72.1266
2540.000000	74.671	-70.0895
2580.000000	74.793	-67.9935
2620.000000	74.909	-66.0516
2650.000000	74.993	-64.7454
2690.000000	75.105	-63.1709
2720.000000	75.190	-62.0953
2760.000000	75.303	-60.8087
2800.000000	75.413	-59.6724
2850.000000	75.556	-58.4026
2900.000000	75.699	-57.3415
2950.000000	75.839	-56.5556
3000.000000	75.973	-55.9170
3040.000000	76.082	-55.3017
3070.000000	76.168	-54.6972
3110.000000	76.286	-53.7304
3150.000000	76.405	-52.7216
3200.000000	76.546	-51.5785
3250.000000	76.685	-50.5120
3300.000000	76.831	-49.3624
3350.000000	76.981	-48.1021
3400.000000	77.131	-46.7713
3450.000000	77.285	-45.3946
3500.000000	77.442	-44.0444
3550.000000	77.600	-42.8577
3600.000000	77.756	-41.9867
3650.000000	77.905	-41.5194
3700.000000	78.047	-41.3798
3750.000000	78.188	-41.3916
3820.000000	78.381	-41.5322
3870.000000	78.506	-41.7922
3950.000000	78.678	-42.4758
4000.000000	78.774	-42.9147
4060.000000	78.875	-43.3187
4120.000000	78.961	-43.5003
4180.000000	79.034	-43.4274
4250.000000	79.095	-43.1876
4310.000000	79.123	-43.0545
4370.000000	79.121	-43.1554
4440.000000	79.077	-43.6165
4500.000000	79.005	-44.2032
4550.000000	78.922	-44.7595
4620.000000	78.771	-45.5402
4680.000000	78.620	-46.1011
4750.000000	78.431	-46.6284
4820.000000	78.231	-47.1015
4870.000000	78.089	-47.3661
4940.000000	77.899	-47.5060
5000.000000	77.746	-47.3513
5080.000000	77.555	-46.7643
5150.000000	77.397	-45.8945
5220.000000	77.246	-44.6569
5300.000000	77.080	-42.9309
5380.000000	76.912	-41.1580
5450.000000	76.775	-39.6866
5520.000000	76.668	-38.3160
5600.000000	76.582	-36.9309
5700.000000	76.451	-35.1562
5800.000000	76.256	-32.7576
5900.000000	76.033	-29.8080
6000.000000	75.815	-26.8303
6080.000000	75.656	-24.6517
6150.000000	75.544	-22.7167
6220.000000	75.470	-20.4839
6300.000000	75.445	-17.4018
6400.000000	75.506	-12.9292
6500.000000	75.672	-8.2643
6600.000000	75.938	-3.8527
6700.000000	76.310	0.3309
6800.000000	76.793	4.4250
6900.000000	77.385	8.3825
7000.000000	78.086	12.1320
7100.000000	78.894	15.6442
7200.000000	79.803	18.7380
7300.000000	80.792	21.0697
7400.000000	81.835	22.4078
7500.000000	82.881	22.5297
7620.000000	84.032	20.6852
7750.000000	84.982	16.0859
7880.000000	85.465	9.3915
8000.000000	85.433	2.5235
8120.000000	84.978	-3.8875
8250.000000	84.132	-9.4468
8380.000000	83.088	-13.1249
8500.000000	82.081	-15.0365
8620.000000	81.114	-15.9148
8750.000000	80.161	-15.9340
8850.000000	79.510	-15.1341
9000.000000	78.676	-12.2063
9120.000000	78.123	-8.6173
9250.000000	77.611	-4.3493
9380.000000	77.164	-0.4821
9500.000000	76.794	2.4070
9620.000000	76.451	4.4817
9750.000000	76.092	5.6623
9880.000000	75.724	5.6628
10000.000000	75.362	4.8927
10150.000000	74.867	3.8257
10300.000000	74.319	3.6099
10440.000000	73.742	4.5220
10600.000000	73.003	6.9882
10750.000000	72.252	10.6864
10900.000000	71.466	15.4811
11060.000000	70.634	21.6602
11200.000000	69.981	28.1105
11380.000000	69.387	38.1836
11500.000000	69.223	45.8326
11720.000000	69.442	59.4545
11800.000000	69.656	63.5060
12060.000000	70.638	71.7996
12200.000000	71.281	73.4319
12410.000000	72.340	72.5579
12500.000000	72.811	70.8604
12650.000000	73.569	66.0697
12800.000000	74.222	58.8684
13150.000000	74.759	35.4469
13200.000000	74.677	31.8051
13400.000000	73.910	17.9723
13600.000000	72.519	6.6766
13800.000000	70.692	-1.4666
14000.000000	68.650	-6.9744
14300.000000	65.591	-12.1055
14500.000000	63.730	-13.8834
14750.000000	61.681	-14.9274
15000.000000	59.932	-15.4323
15250.000000	58.471	-15.1901
15500.000000	57.296	-13.6831
15750.000000	56.400	-10.6251
16000.000000	55.772	-6.0075
16250.000000	55.396	-1.1655
16500.000000	55.264	1.4529
16750.000000	55.378	0.0116
17000.000000	55.738	-5.0078
17250.000000	56.322	-12.1797
17500.000000	57.064	-21.2700
17750.000000	57.854	-33.4732
18000.000000	58.557	-50.0454
18250.000000	59.056	-70.6605
18500.000000	59.267	-93.7454
18750.000000	59.121	-117.4499
19000.000000	58.548	-140.2218
19250.000000	57.516	-161.6349
19500.000000	56.121	178.5944
19750.000000	54.665	161.9769
20000.000000	53.702	151.9371
