* Measurement data measured by REW V5.20.13
* Source: Microphone (2- USB Audio Device), MICROPHONE (Master Volume), L, volume: 0.250. Timing signal peak level -38.5 dBFS, measurement signal peak level -37.7 dBFS
* Format: 256k Log Swept Sine, 1 sweep at -12.0 dBFS using an acoustic timing reference
* Dated: 14-May-2023 11:39:28
* REW Settings:
*  C-weighting compensation: Off
*  Target level: 75.0 dB
* Note: 
* Measurement: Huawei Freebuds Pro R
* Smoothing: 1/12 octave
* Frequency Step: 1/48 octave
* Start Frequency: 20.000 Hz
*
* Freq(Hz)	SPL(dB)	Phase(degrees)
20.000000	60.650	-84.9745
20.299999	61.272	-86.7480
20.600000	61.849	-87.6959
20.900000	62.371	-87.9768
21.200001	62.835	-87.7264
21.400000	63.115	-87.3397
21.799999	63.610	-86.2165
22.000000	63.825	-85.5818
22.400000	64.182	-84.3609
22.700001	64.377	-83.5653
23.000000	64.504	-82.8718
23.299999	64.570	-82.2361
23.600000	64.589	-81.6514
24.000000	64.568	-81.0225
24.299999	64.534	-80.7886
24.700001	64.475	-80.9630
25.000000	64.420	-81.5145
25.400000	64.332	-82.7681
25.799999	64.245	-84.4578
26.200001	64.189	-86.4142
26.500000	64.187	-87.9859
26.900000	64.253	-90.1641
27.200001	64.355	-91.8188
27.600000	64.549	-93.9828
28.000000	64.792	-95.9938
28.500000	65.130	-98.1304
29.000000	65.478	-99.7271
29.500000	65.819	-100.7885
30.000000	66.135	-101.4424
30.400000	66.357	-101.7842
30.700001	66.501	-101.9783
31.100000	66.660	-102.1907
31.500000	66.783	-102.3824
32.000000	66.896	-102.6616
32.500000	66.971	-103.0811
33.000000	67.017	-103.7148
33.500000	67.041	-104.5692
34.000000	67.059	-105.6140
34.500000	67.086	-106.8221
35.000000	67.133	-108.1725
35.500000	67.202	-109.6213
36.000000	67.290	-111.0964
36.500000	67.394	-112.5156
37.000000	67.510	-113.8042
37.500000	67.635	-114.9242
38.200001	67.817	-116.2295
38.700001	67.946	-117.0312
39.500000	68.132	-118.1976
40.000000	68.232	-118.8912
40.599998	68.337	-119.7342
41.200001	68.427	-120.6371
41.799999	68.499	-121.5970
42.500000	68.570	-122.7223
43.099998	68.635	-123.6696
43.700001	68.711	-124.6593
44.400002	68.805	-125.9285
45.000000	68.875	-127.0682
45.500000	68.923	-127.9818
46.200001	68.986	-129.1562
46.799999	69.043	-130.0915
47.500000	69.115	-131.1543
48.200001	69.192	-132.2093
48.700001	69.250	-132.9670
49.400002	69.331	-134.0447
50.000000	69.393	-134.9735
50.799999	69.464	-136.1788
51.500000	69.518	-137.1898
52.200001	69.567	-138.1699
53.000000	69.616	-139.2437
53.799999	69.657	-140.2553
54.500000	69.690	-141.1177
55.200001	69.718	-141.9943
56.000000	69.744	-143.0152
57.000000	69.775	-144.2938
58.000000	69.814	-145.5930
59.000000	69.858	-146.9196
60.000000	69.899	-148.2113
60.799999	69.929	-149.1810
61.500000	69.954	-149.9891
62.200001	69.976	-150.7825
63.000000	69.998	-151.6957
64.000000	70.018	-152.8568
65.000000	70.032	-154.0204
66.000000	70.048	-155.1696
67.000000	70.069	-156.2885
68.000000	70.092	-157.3519
69.000000	70.115	-158.3721
70.000000	70.130	-159.3818
71.000000	70.132	-160.3763
72.000000	70.121	-161.3386
73.000000	70.106	-162.2686
74.000000	70.093	-163.1878
75.000000	70.084	-164.1301
76.199997	70.073	-165.2948
77.500000	70.056	-166.5392
78.800003	70.037	-167.7142
80.000000	70.021	-168.7482
81.199997	70.004	-169.7541
82.500000	69.983	-170.8052
83.800003	69.958	-171.8021
85.000000	69.934	-172.6899
86.199997	69.906	-173.5861
87.500000	69.868	-174.5801
88.500000	69.834	-175.3362
90.000000	69.785	-176.4299
91.199997	69.750	-177.2776
92.500000	69.710	-178.1560
93.800003	69.664	-178.9725
95.000000	69.616	-179.6866
96.199997	69.565	179.6095
97.500000	69.508	178.8361
98.800003	69.452	178.0414
100.000000	69.399	177.3091
101.500000	69.335	176.4304
103.000000	69.271	175.5970
104.400002	69.208	174.8588
106.000000	69.132	174.0798
107.500000	69.062	173.4132
109.000000	68.995	172.7825
110.599998	68.924	172.1251
112.000000	68.858	171.5507
113.800003	68.767	170.8092
115.000000	68.702	170.3257
117.199997	68.583	169.5051
118.000000	68.542	169.2328
120.599998	68.415	168.4105
122.000000	68.348	167.9821
124.099998	68.243	167.3894
125.000000	68.199	167.1597
126.500000	68.130	166.7915
128.000000	68.065	166.4207
131.500000	67.909	165.5670
132.000000	67.886	165.4496
134.000000	67.792	164.9984
136.000000	67.701	164.5969
138.000000	67.616	164.2731
140.000000	67.536	164.0307
143.000000	67.424	163.7132
145.000000	67.350	163.4853
147.500000	67.262	163.2055
150.000000	67.186	162.9714
152.500000	67.120	162.7644
155.000000	67.052	162.5676
157.500000	66.976	162.3976
160.000000	66.900	162.2717
162.500000	66.833	162.1760
165.000000	66.772	162.0765
167.500000	66.710	161.9279
170.000000	66.646	161.7061
172.500000	66.583	161.4323
175.000000	66.523	161.1984
177.500000	66.470	161.0700
180.000000	66.422	160.9969
182.500000	66.366	160.9094
185.000000	66.294	160.7881
187.500000	66.208	160.6398
190.000000	66.119	160.4754
192.500000	66.037	160.3192
195.000000	65.967	160.1935
197.500000	65.905	160.1006
200.000000	65.850	160.0212
203.000000	65.801	159.9045
206.000000	65.772	159.7653
209.000000	65.754	159.6301
212.000000	65.731	159.4926
214.000000	65.709	159.3895
218.000000	65.656	159.1722
220.000000	65.625	159.0866
224.000000	65.558	158.9780
227.000000	65.500	158.9099
230.000000	65.435	158.8367
233.000000	65.368	158.7584
236.000000	65.306	158.6744
240.000000	65.237	158.5594
243.000000	65.187	158.4734
247.000000	65.117	158.3825
250.000000	65.063	158.3331
254.000000	64.985	158.2458
258.000000	64.903	158.1589
262.000000	64.822	158.1312
265.000000	64.762	158.1436
269.000000	64.682	158.1776
272.000000	64.623	158.2192
276.000000	64.545	158.3564
280.000000	64.474	158.6501
285.000000	64.402	159.1711
290.000000	64.348	159.6566
295.000000	64.301	160.0160
300.000000	64.249	160.2762
304.000000	64.202	160.4374
307.000000	64.165	160.5565
311.000000	64.114	160.7403
315.000000	64.062	160.9579
320.000000	64.000	161.2726
325.000000	63.946	161.6098
330.000000	63.905	161.9150
335.000000	63.877	162.1451
340.000000	63.859	162.3099
345.000000	63.839	162.4640
350.000000	63.802	162.6038
355.000000	63.753	162.6860
360.000000	63.706	162.7245
365.000000	63.668	162.7401
370.000000	63.636	162.7118
375.000000	63.603	162.6685
382.000000	63.548	162.7025
387.000000	63.502	162.7645
395.000000	63.425	162.8168
400.000000	63.376	162.8071
406.000000	63.303	162.7239
412.000000	63.197	162.5752
418.000000	63.051	162.4846
425.000000	62.843	162.7228
431.000000	62.660	163.4202
437.000000	62.506	164.5714
444.000000	62.399	166.1849
450.000000	62.381	167.4662
455.000000	62.406	168.3303
462.000000	62.472	169.1986
468.000000	62.535	169.6694
475.000000	62.601	170.0209
482.000000	62.650	170.2811
487.000000	62.673	170.4590
494.000000	62.692	170.7295
500.000000	62.704	170.9725
508.000000	62.708	171.2751
515.000000	62.696	171.5108
522.000000	62.671	171.7324
530.000000	62.632	171.9728
538.000000	62.592	172.1862
545.000000	62.558	172.4144
552.000000	62.518	172.7341
560.000000	62.460	173.1953
570.000000	62.367	173.9009
580.000000	62.260	174.7795
590.000000	62.167	175.8143
600.000000	62.111	176.9834
608.000000	62.098	177.9609
615.000000	62.106	178.8075
622.000000	62.122	179.6477
630.000000	62.145	-179.3945
640.000000	62.179	-178.2475
650.000000	62.222	-177.2402
660.000000	62.265	-176.4164
670.000000	62.292	-175.7546
680.000000	62.304	-175.2120
690.000000	62.315	-174.7041
700.000000	62.332	-174.1594
710.000000	62.355	-173.5725
720.000000	62.384	-172.9827
730.000000	62.414	-172.4192
740.000000	62.440	-171.8793
750.000000	62.457	-171.3380
762.000000	62.467	-170.6777
775.000000	62.481	-169.9673
788.000000	62.513	-169.2438
800.000000	62.558	-168.4985
812.000000	62.600	-167.6477
825.000000	62.636	-166.6334
838.000000	62.669	-165.5536
850.000000	62.707	-164.4713
862.000000	62.756	-163.3168
875.000000	62.820	-162.0656
885.000000	62.869	-161.1522
900.000000	62.933	-159.8747
912.000000	62.983	-158.8899
925.000000	63.046	-157.8384
938.000000	63.117	-156.8674
950.000000	63.180	-156.0875
962.000000	63.237	-155.3978
975.000000	63.293	-154.7019
988.000000	63.349	-154.0258
1000.000000	63.405	-153.4427
1015.000000	63.484	-152.8220
1030.000000	63.562	-152.3057
1044.000000	63.628	-151.8960
1060.000000	63.704	-151.4810
1075.000000	63.786	-151.0657
1090.000000	63.873	-150.6044
1106.000000	63.967	-150.1223
1120.000000	64.047	-149.7288
1138.000000	64.141	-149.2283
1150.000000	64.197	-148.8682
1172.000000	64.297	-148.0892
1180.000000	64.337	-147.7775
1206.000000	64.485	-146.7966
1220.000000	64.568	-146.2978
1241.000000	64.694	-145.5862
1250.000000	64.753	-145.3101
1265.000000	64.863	-144.8920
1280.000000	64.980	-144.4966
1315.000000	65.210	-143.6494
1320.000000	65.234	-143.5544
1340.000000	65.301	-143.2590
1360.000000	65.322	-143.0692
1380.000000	65.310	-142.9250
1400.000000	65.285	-142.7523
1430.000000	65.271	-142.3491
1450.000000	65.293	-142.0352
1475.000000	65.359	-141.6751
1500.000000	65.458	-141.2972
1525.000000	65.566	-140.8336
1550.000000	65.680	-140.2629
1575.000000	65.795	-139.5811
1600.000000	65.902	-138.8172
1625.000000	66.003	-137.9822
1650.000000	66.105	-137.0515
1675.000000	66.217	-136.0355
1700.000000	66.347	-134.9764
1725.000000	66.491	-133.9195
1750.000000	66.643	-132.9462
1775.000000	66.795	-132.1140
1800.000000	66.939	-131.4056
1825.000000	67.081	-130.7872
1850.000000	67.222	-130.2383
1875.000000	67.360	-129.7652
1900.000000	67.489	-129.3732
1925.000000	67.610	-129.0386
1950.000000	67.728	-128.7322
1975.000000	67.846	-128.4302
2000.000000	67.966	-128.1174
2030.000000	68.108	-127.7325
2060.000000	68.243	-127.3390
2090.000000	68.378	-126.8926
2120.000000	68.520	-126.3550
2140.000000	68.617	-125.9742
2180.000000	68.813	-125.3586
2200.000000	68.908	-125.2074
2240.000000	69.081	-125.2930
2270.000000	69.194	-125.6119
2300.000000	69.296	-125.9800
2330.000000	69.391	-126.2769
2360.000000	69.478	-126.4824
2400.000000	69.586	-126.6558
2430.000000	69.658	-126.7570
2470.000000	69.744	-126.8848
2500.000000	69.800	-126.9649
2540.000000	69.866	-127.0562
2580.000000	69.927	-127.1595
2620.000000	69.990	-127.2605
2650.000000	70.045	-127.3154
2690.000000	70.129	-127.4126
2720.000000	70.193	-127.5793
2760.000000	70.272	-127.9635
2800.000000	70.334	-128.4313
2850.000000	70.389	-128.9411
2900.000000	70.421	-129.2932
2950.000000	70.434	-129.5422
3000.000000	70.425	-129.6519
3040.000000	70.402	-129.5984
3070.000000	70.380	-129.4955
3110.000000	70.351	-129.3300
3150.000000	70.328	-129.1740
3200.000000	70.305	-129.0174
3250.000000	70.284	-128.9296
3300.000000	70.259	-128.9605
3350.000000	70.225	-129.1012
3400.000000	70.172	-129.2472
3450.000000	70.100	-129.2640
3500.000000	70.014	-129.0988
3550.000000	69.912	-128.8171
3600.000000	69.792	-128.4520
3650.000000	69.655	-127.9570
3700.000000	69.506	-127.2646
3750.000000	69.356	-126.3237
3820.000000	69.179	-124.6188
3870.000000	69.117	-123.2421
3950.000000	69.182	-121.3178
4000.000000	69.264	-120.6351
4060.000000	69.303	-120.3479
4120.000000	69.245	-120.2196
4180.000000	69.126	-119.7490
4250.000000	68.960	-118.5005
4310.000000	68.822	-116.9742
4370.000000	68.705	-115.2310
4440.000000	68.625	-113.0914
4500.000000	68.615	-111.2840
4550.000000	68.642	-109.8741
4620.000000	68.697	-108.1852
4680.000000	68.734	-107.1235
4750.000000	68.754	-106.3366
4820.000000	68.760	-105.7892
4870.000000	68.761	-105.3796
4940.000000	68.756	-104.6847
5000.000000	68.742	-103.9714
5080.000000	68.716	-102.8620
5150.000000	68.687	-101.7722
5220.000000	68.649	-100.6001
5300.000000	68.593	-99.1350
5380.000000	68.529	-97.3860
5450.000000	68.477	-95.4645
5520.000000	68.432	-93.2305
5600.000000	68.378	-90.5722
5700.000000	68.301	-87.3104
5800.000000	68.218	-83.9764
5900.000000	68.120	-80.5754
6000.000000	67.997	-77.2380
6080.000000	67.874	-74.5952
6150.000000	67.747	-72.2398
6220.000000	67.595	-69.8084
6300.000000	67.391	-66.9023
6400.000000	67.100	-63.0447
6500.000000	66.783	-59.0295
6600.000000	66.447	-55.0038
6700.000000	66.103	-51.0634
6800.000000	65.762	-47.3089
6900.000000	65.431	-43.7968
7000.000000	65.115	-40.4475
7100.000000	64.826	-37.1075
7200.000000	64.577	-33.6977
7300.000000	64.380	-30.2984
7400.000000	64.245	-27.0105
7500.000000	64.190	-23.7610
7620.000000	64.248	-19.7388
7750.000000	64.442	-15.3033
7880.000000	64.725	-10.9243
8000.000000	65.053	-6.9747
8120.000000	65.450	-3.2675
8250.000000	65.963	0.2053
8380.000000	66.566	2.6494
8500.000000	67.162	3.6049
8620.000000	67.715	3.2256
8750.000000	68.141	1.1946
8850.000000	68.260	-1.5885
9000.000000	68.001	-7.1410
9120.000000	67.412	-11.5797
9250.000000	66.458	-15.0891
9380.000000	65.283	-16.4490
9500.000000	64.100	-15.4563
9620.000000	62.896	-12.3339
9750.000000	61.632	-7.0393
9880.000000	60.448	-0.5098
10000.000000	59.434	6.2518
10150.000000	58.284	15.7344
10300.000000	57.267	26.2629
10440.000000	56.415	36.5164
10600.000000	55.542	48.0674
10750.000000	54.839	58.4828
10900.000000	54.241	68.5492
11060.000000	53.674	78.9763
11200.000000	53.216	87.8109
11380.000000	52.698	98.5119
11500.000000	52.403	105.0589
11720.000000	51.911	115.9772
11800.000000	51.743	119.7849
12060.000000	51.316	132.8628
12200.000000	51.178	140.6472
12410.000000	51.069	152.6930
12500.000000	51.049	157.6835
12650.000000	51.056	165.3704
12800.000000	51.113	172.0381
13150.000000	51.338	-176.1624
13200.000000	51.375	-174.8333
13400.000000	51.560	-170.2401
13600.000000	51.872	-166.4463
13800.000000	52.395	-162.8148
14000.000000	53.168	-158.9238
14300.000000	54.807	-153.3044
14500.000000	56.132	-151.1890
14750.000000	57.822	-152.3750
15000.000000	59.269	-158.5061
15250.000000	60.162	-168.4379
15500.000000	60.282	179.8975
15750.000000	59.610	168.8123
16000.000000	58.341	160.7952
16250.000000	56.774	156.9646
16500.000000	55.185	156.5029
16750.000000	53.781	158.0020
17000.000000	52.655	160.2920
17250.000000	51.801	162.1316
17500.000000	51.178	161.7151
17750.000000	50.734	154.7521
18000.000000	50.395	127.7454
18250.000000	50.075	41.9012
18500.000000	49.694	164.6523
18750.000000	49.193	-38.2290
19000.000000	48.578	-82.5505
19250.000000	47.906	-136.3364
19500.000000	47.235	-83.6665
19750.000000	46.609	-85.4375
