* Measurement data measured by REW V5.20.13
* Source: Microphone (2- USB Audio Device), MICROPHONE (Master Volume), L, volume: 0.250. Timing signal peak level -38.3 dBFS, measurement signal peak level -38.1 dBFS
* Format: 256k Log Swept Sine, 1 sweep at -12.0 dBFS using an acoustic timing reference
* Dated: 11-May-2023 13:49:52
* REW Settings:
*  C-weighting compensation: Off
*  Target level: 75.0 dB
* Note: 
* Measurement: KB Ear Lark R
* Smoothing: 1/12 octave
* Frequency Step: 1/48 octave
* Start Frequency: 20.000 Hz
*
* Freq(Hz)	SPL(dB)	Phase(degrees)
20.000000	67.444	-91.1049
20.299999	68.484	-94.4302
20.600000	69.612	-93.6755
20.900000	70.817	-90.6815
21.200001	72.007	-87.3603
21.400000	72.721	-85.6523
21.799999	73.878	-83.7253
22.000000	74.288	-83.4348
22.400000	74.753	-83.4731
22.700001	74.817	-83.2846
23.000000	74.686	-82.3105
23.299999	74.427	-80.3356
23.600000	74.117	-77.4424
24.000000	73.755	-72.6825
24.299999	73.602	-69.1427
24.700001	73.590	-65.5166
25.000000	73.687	-64.2933
25.400000	73.860	-65.2258
25.799999	73.963	-69.1384
26.200001	73.909	-75.3776
26.500000	73.750	-80.8325
26.900000	73.411	-88.0476
27.200001	73.124	-92.7038
27.600000	72.817	-97.3385
28.000000	72.730	-100.1658
28.500000	72.975	-101.9085
29.000000	73.449	-102.5850
29.500000	73.965	-102.5092
30.000000	74.447	-101.7188
30.400000	74.800	-100.7534
30.700001	75.039	-99.9915
31.100000	75.305	-99.0971
31.500000	75.498	-98.4178
32.000000	75.631	-97.8660
32.500000	75.666	-97.6193
33.000000	75.643	-97.7693
33.500000	75.594	-98.5092
34.000000	75.526	-99.9927
34.500000	75.432	-102.1276
35.000000	75.315	-104.5663
35.500000	75.216	-106.9042
36.000000	75.189	-108.9961
36.500000	75.249	-110.9424
37.000000	75.355	-112.7946
37.500000	75.465	-114.3724
38.200001	75.624	-115.7117
38.700001	75.773	-116.1503
39.500000	76.039	-116.8524
40.000000	76.158	-117.4921
40.599998	76.228	-118.2294
41.200001	76.262	-118.7173
41.799999	76.315	-119.1154
42.500000	76.407	-119.8819
43.099998	76.464	-120.8689
43.700001	76.476	-121.8665
44.400002	76.462	-122.6750
45.000000	76.472	-123.0623
45.500000	76.505	-123.3647
46.200001	76.563	-124.0105
46.799999	76.587	-124.7946
47.500000	76.578	-125.8185
48.200001	76.551	-126.8655
48.700001	76.536	-127.6301
49.400002	76.532	-128.7138
50.000000	76.554	-129.6421
50.799999	76.622	-130.9225
51.500000	76.698	-132.0459
52.200001	76.779	-132.9938
53.000000	76.892	-133.8103
53.799999	77.007	-134.5851
54.500000	77.068	-135.2886
55.200001	77.086	-135.8903
56.000000	77.084	-136.4747
57.000000	77.070	-137.3251
58.000000	77.051	-138.3378
59.000000	77.051	-139.4538
60.000000	77.071	-140.5603
60.799999	77.106	-141.3518
61.500000	77.146	-142.0347
62.200001	77.177	-142.7399
63.000000	77.189	-143.5191
64.000000	77.175	-144.3883
65.000000	77.153	-145.1653
66.000000	77.148	-145.9022
67.000000	77.177	-146.6947
68.000000	77.228	-147.6160
69.000000	77.270	-148.5732
70.000000	77.293	-149.3788
71.000000	77.310	-149.9752
72.000000	77.334	-150.5100
73.000000	77.355	-151.1376
74.000000	77.361	-151.8613
75.000000	77.358	-152.6470
76.199997	77.343	-153.6393
77.500000	77.317	-154.6046
78.800003	77.314	-155.3759
80.000000	77.340	-156.0974
81.199997	77.372	-156.9297
82.500000	77.394	-157.8696
83.800003	77.410	-158.7446
85.000000	77.428	-159.5240
86.199997	77.441	-160.3060
87.500000	77.445	-160.9846
88.500000	77.461	-161.3063
90.000000	77.519	-161.7170
91.199997	77.551	-162.1416
92.500000	77.531	-162.6090
93.800003	77.458	-163.0283
95.000000	77.368	-163.4601
96.199997	77.281	-164.0505
97.500000	77.208	-164.9024
98.800003	77.165	-165.8594
100.000000	77.153	-166.6650
101.500000	77.167	-167.4159
103.000000	77.194	-167.9276
104.400002	77.208	-168.3312
106.000000	77.200	-168.8246
107.500000	77.183	-169.3622
109.000000	77.168	-169.9661
110.599998	77.154	-170.6219
112.000000	77.139	-171.1674
113.800003	77.111	-171.8065
115.000000	77.089	-172.2098
117.199997	77.055	-172.9792
118.000000	77.043	-173.2743
120.599998	77.000	-174.2119
122.000000	76.973	-174.6573
124.099998	76.934	-175.2839
125.000000	76.919	-175.5624
126.500000	76.895	-176.0533
128.000000	76.875	-176.5577
131.500000	76.845	-177.5414
132.000000	76.842	-177.6537
134.000000	76.827	-178.0956
136.000000	76.800	-178.5761
138.000000	76.770	-179.1011
140.000000	76.753	-179.6572
143.000000	76.732	179.6150
145.000000	76.698	179.3340
147.500000	76.641	179.0819
150.000000	76.584	178.5217
152.500000	76.523	177.6871
155.000000	76.466	176.9745
157.500000	76.420	176.5360
160.000000	76.380	176.2010
162.500000	76.340	175.7577
165.000000	76.300	175.1932
167.500000	76.263	174.6093
170.000000	76.227	174.0884
172.500000	76.181	173.6619
175.000000	76.125	173.2915
177.500000	76.068	172.9412
180.000000	76.022	172.6269
182.500000	75.978	172.3287
185.000000	75.921	171.9784
187.500000	75.844	171.5407
190.000000	75.751	171.0809
192.500000	75.658	170.7103
195.000000	75.579	170.4683
197.500000	75.520	170.2796
200.000000	75.476	170.0443
203.000000	75.437	169.6793
206.000000	75.419	169.2948
209.000000	75.413	168.9734
212.000000	75.397	168.7194
214.000000	75.378	168.5624
218.000000	75.322	168.2957
220.000000	75.287	168.2129
224.000000	75.223	168.0579
227.000000	75.182	167.8587
230.000000	75.141	167.6169
233.000000	75.098	167.3560
236.000000	75.058	167.0480
240.000000	75.010	166.5562
243.000000	74.972	166.2078
247.000000	74.907	165.9012
250.000000	74.850	165.7758
254.000000	74.780	165.6245
258.000000	74.717	165.4116
262.000000	74.652	165.1411
265.000000	74.602	164.9131
269.000000	74.532	164.6328
272.000000	74.476	164.5031
276.000000	74.400	164.4622
280.000000	74.317	164.4699
285.000000	74.212	164.3846
290.000000	74.136	164.2474
295.000000	74.083	164.0645
300.000000	74.027	163.7894
304.000000	73.972	163.5276
307.000000	73.927	163.3308
311.000000	73.870	163.0912
315.000000	73.821	162.9134
320.000000	73.772	162.8021
325.000000	73.722	162.7016
330.000000	73.652	162.6016
335.000000	73.561	162.6136
340.000000	73.468	162.6296
345.000000	73.390	162.5176
350.000000	73.333	162.3196
355.000000	73.284	162.2220
360.000000	73.228	162.3210
365.000000	73.172	162.4998
370.000000	73.122	162.6136
375.000000	73.074	162.6136
382.000000	72.978	162.5045
387.000000	72.888	162.4302
395.000000	72.764	162.3041
400.000000	72.713	162.2136
406.000000	72.653	162.1683
412.000000	72.574	162.2735
418.000000	72.484	162.4713
425.000000	72.396	162.6288
431.000000	72.332	162.6707
437.000000	72.269	162.6627
444.000000	72.196	162.7012
450.000000	72.132	162.8948
455.000000	72.074	163.1450
462.000000	71.984	163.4797
468.000000	71.909	163.7139
475.000000	71.829	163.9746
482.000000	71.751	164.2292
487.000000	71.697	164.3983
494.000000	71.634	164.6412
500.000000	71.583	164.8740
508.000000	71.505	165.1733
515.000000	71.438	165.3862
522.000000	71.383	165.5835
530.000000	71.307	165.8352
538.000000	71.212	166.1713
545.000000	71.141	166.5410
552.000000	71.098	166.9430
560.000000	71.064	167.3866
570.000000	71.004	167.9006
580.000000	70.934	168.4921
590.000000	70.886	169.1122
600.000000	70.824	169.5323
608.000000	70.748	169.8192
615.000000	70.676	170.1456
622.000000	70.611	170.5390
630.000000	70.547	171.0474
640.000000	70.489	171.7430
650.000000	70.456	172.3925
660.000000	70.436	172.9304
670.000000	70.422	173.4304
680.000000	70.380	173.9880
690.000000	70.316	174.6528
700.000000	70.256	175.4514
710.000000	70.190	176.3278
720.000000	70.121	177.2081
730.000000	70.068	178.0580
740.000000	70.035	178.8204
750.000000	70.016	179.4431
762.000000	70.009	-179.8295
775.000000	69.993	-178.8442
788.000000	69.980	-177.7342
800.000000	69.981	-176.7358
812.000000	69.984	-175.8452
825.000000	69.988	-174.9637
838.000000	70.004	-174.1058
850.000000	70.038	-173.3245
862.000000	70.087	-172.5520
875.000000	70.147	-171.6686
885.000000	70.191	-170.9481
900.000000	70.254	-169.8762
912.000000	70.310	-169.0293
925.000000	70.379	-168.1754
938.000000	70.459	-167.4409
950.000000	70.537	-166.7783
962.000000	70.609	-166.0901
975.000000	70.683	-165.3864
988.000000	70.755	-164.7137
1000.000000	70.824	-164.0650
1015.000000	70.925	-163.3120
1030.000000	71.043	-162.7615
1044.000000	71.155	-162.3672
1060.000000	71.282	-161.8831
1075.000000	71.399	-161.4207
1090.000000	71.506	-161.0508
1106.000000	71.603	-160.7392
1120.000000	71.685	-160.5246
1138.000000	71.792	-160.2723
1150.000000	71.868	-160.1025
1172.000000	72.026	-159.8514
1180.000000	72.090	-159.7927
1206.000000	72.308	-159.6680
1220.000000	72.428	-159.6121
1241.000000	72.601	-159.5698
1250.000000	72.670	-159.5610
1265.000000	72.779	-159.5306
1280.000000	72.883	-159.4786
1315.000000	73.122	-159.5300
1320.000000	73.155	-159.5703
1340.000000	73.270	-159.7514
1360.000000	73.346	-159.8551
1380.000000	73.382	-159.8785
1400.000000	73.386	-159.8835
1430.000000	73.372	-159.8253
1450.000000	73.379	-159.7822
1475.000000	73.433	-159.8183
1500.000000	73.531	-159.9436
1525.000000	73.650	-160.0621
1550.000000	73.784	-160.0980
1575.000000	73.933	-160.0711
1600.000000	74.078	-160.0223
1625.000000	74.204	-160.0113
1650.000000	74.301	-160.0804
1675.000000	74.380	-160.1567
1700.000000	74.462	-160.2184
1725.000000	74.552	-160.2302
1750.000000	74.646	-160.1749
1775.000000	74.744	-160.0993
1800.000000	74.844	-160.0763
1825.000000	74.937	-160.1224
1850.000000	75.023	-160.2465
1875.000000	75.108	-160.4313
1900.000000	75.195	-160.6232
1925.000000	75.283	-160.7932
1950.000000	75.368	-160.9785
1975.000000	75.452	-161.2245
2000.000000	75.536	-161.5044
2030.000000	75.641	-161.8053
2060.000000	75.745	-162.1035
2090.000000	75.841	-162.4544
2120.000000	75.935	-162.8016
2140.000000	75.997	-163.0132
2180.000000	76.114	-163.4738
2200.000000	76.170	-163.7533
2240.000000	76.278	-164.3477
2270.000000	76.350	-164.7437
2300.000000	76.411	-165.0966
2330.000000	76.466	-165.4852
2360.000000	76.523	-165.9382
2400.000000	76.602	-166.5546
2430.000000	76.659	-167.0135
2470.000000	76.727	-167.6774
2500.000000	76.765	-168.1373
2540.000000	76.785	-168.5662
2580.000000	76.791	-168.9407
2620.000000	76.807	-169.3864
2650.000000	76.819	-169.7133
2690.000000	76.831	-170.0984
2720.000000	76.838	-170.3502
2760.000000	76.846	-170.6620
2800.000000	76.857	-170.9863
2850.000000	76.874	-171.3009
2900.000000	76.892	-171.4314
2950.000000	76.892	-171.4622
3000.000000	76.877	-171.4044
3040.000000	76.874	-171.3268
3070.000000	76.880	-171.2748
3110.000000	76.896	-171.1970
3150.000000	76.920	-171.0993
3200.000000	76.963	-170.9852
3250.000000	77.019	-170.8789
3300.000000	77.083	-170.7718
3350.000000	77.156	-170.6215
3400.000000	77.238	-170.3579
3450.000000	77.325	-170.0167
3500.000000	77.416	-169.7238
3550.000000	77.514	-169.5374
3600.000000	77.622	-169.4718
3650.000000	77.738	-169.5202
3700.000000	77.870	-169.6453
3750.000000	78.021	-169.8270
3820.000000	78.245	-170.2419
3870.000000	78.401	-170.6870
3950.000000	78.648	-171.5536
4000.000000	78.795	-172.1780
4060.000000	78.940	-173.0052
4120.000000	79.042	-173.8874
4180.000000	79.108	-174.7968
4250.000000	79.155	-175.8932
4310.000000	79.189	-176.8619
4370.000000	79.222	-177.8483
4440.000000	79.270	-179.0692
4500.000000	79.332	179.7958
4550.000000	79.398	178.7515
4620.000000	79.498	177.0291
4680.000000	79.569	175.2574
4750.000000	79.605	172.8583
4820.000000	79.560	170.2209
4870.000000	79.465	168.3057
4940.000000	79.247	165.7418
5000.000000	78.992	163.7767
5080.000000	78.572	161.6403
5150.000000	78.151	160.2654
5220.000000	77.700	159.3552
5300.000000	77.176	158.8952
5380.000000	76.656	159.0475
5450.000000	76.209	159.6283
5520.000000	75.781	160.5204
5600.000000	75.325	161.7822
5700.000000	74.807	163.6715
5800.000000	74.357	165.9590
5900.000000	73.985	168.4956
6000.000000	73.681	171.2112
6080.000000	73.478	173.4667
6150.000000	73.319	175.4595
6220.000000	73.170	177.4948
6300.000000	73.012	179.9209
6400.000000	72.846	-176.9571
6500.000000	72.722	-173.8246
6600.000000	72.651	-170.6138
6700.000000	72.638	-167.3871
6800.000000	72.678	-164.2247
6900.000000	72.756	-160.9802
7000.000000	72.875	-157.6125
7100.000000	73.066	-154.2451
7200.000000	73.332	-150.9370
7300.000000	73.662	-147.7162
7400.000000	74.056	-144.6663
7500.000000	74.528	-141.7999
7620.000000	75.193	-138.5433
7750.000000	75.988	-135.2609
7880.000000	76.810	-132.3623
8000.000000	77.578	-130.2451
8120.000000	78.371	-128.8486
8250.000000	79.287	-128.3069
8380.000000	80.274	-128.9946
8500.000000	81.211	-130.9658
8620.000000	82.114	-134.4452
8750.000000	82.960	-140.0384
8850.000000	83.450	-145.5423
9000.000000	83.833	-155.0572
9120.000000	83.808	-162.7753
9250.000000	83.479	-170.1976
9380.000000	82.916	-176.0261
9500.000000	82.284	-179.8077
9620.000000	81.635	177.8378
9750.000000	80.995	176.5510
9880.000000	80.474	176.1545
10000.000000	80.124	176.2283
10150.000000	79.868	176.4194
10300.000000	79.783	176.1553
10440.000000	79.797	175.0660
10600.000000	79.819	172.5231
10750.000000	79.741	168.9657
10900.000000	79.495	164.8267
11060.000000	79.026	160.5993
11200.000000	78.469	157.5895
11380.000000	77.634	154.9612
11500.000000	77.054	153.9186
11720.000000	76.044	153.0189
11800.000000	75.706	152.8971
12060.000000	74.693	152.9390
12200.000000	74.179	153.1878
12410.000000	73.426	153.8505
12500.000000	73.108	154.2191
12650.000000	72.581	154.8986
12800.000000	72.056	155.6029
13150.000000	70.790	156.8051
13200.000000	70.598	156.8892
13400.000000	69.801	157.0411
13600.000000	68.983	156.9435
13800.000000	68.150	156.6870
14000.000000	67.275	156.5283
14300.000000	65.874	157.3658
14500.000000	64.890	159.5947
14750.000000	63.721	165.0717
15000.000000	62.845	172.3323
15250.000000	62.342	177.4600
15500.000000	61.881	176.1973
15750.000000	61.309	157.4088
16000.000000	60.737	86.4271
16250.000000	60.224	-103.3868
16500.000000	59.813	-114.8064
16750.000000	59.480	30.7288
17000.000000	59.173	-99.2656
17250.000000	58.810	-3.5054
17500.000000	58.477	-2.5371
17750.000000	58.345	2.3252
18000.000000	58.455	-139.3311
18250.000000	58.802	19.7383
18500.000000	59.362	113.8320
18750.000000	60.030	6.6016
19000.000000	60.655	158.9062
19250.000000	61.157	122.0234
19500.000000	61.460	51.1914
19750.000000	61.507	75.8047
