* Measurement data measured by REW V5.31.3
* Source: Microphone (USB Sound Device        ), MICROPHONE (Master Volume), L, volume: 0.700
* Format: 256k Log Swept Sine, 1 sweep at -12.0 dBFS with no timing reference
* Dated: 29-Jan-2025 17:32:51
* REW Settings:
*  C-weighting compensation: Off
*  Target level: 75.0 dB
* Note: 
* Measurement: Kefine Klean
* Smoothing: 1/12 octave
* Frequency Step: 1/48 octave
* Start Frequency: 20.300 Hz
*
* Freq(Hz)	SPL(dB)	Phase(degrees)
20.299999	73.020	-150.9622
20.600000	73.025	-151.5054
20.900000	73.030	-152.1855
21.200001	73.033	-152.9097
21.400000	73.035	-153.3975
21.799999	73.037	-154.3653
22.000000	73.038	-154.8411
22.400000	73.041	-155.7714
22.700001	73.044	-156.4496
23.000000	73.047	-157.1119
23.299999	73.049	-157.7600
23.600000	73.051	-158.3957
24.000000	73.049	-159.2265
24.299999	73.045	-159.8386
24.700001	73.039	-160.6424
25.000000	73.034	-161.2368
25.400000	73.028	-162.0178
25.799999	73.020	-162.7828
26.200001	73.012	-163.5268
26.500000	73.004	-164.0689
26.900000	72.993	-164.7709
27.200001	72.984	-165.2845
27.600000	72.971	-165.9581
28.000000	72.957	-166.6244
28.500000	72.939	-167.4501
29.000000	72.920	-168.2639
29.500000	72.900	-169.0591
30.000000	72.880	-169.8314
30.400000	72.863	-170.4317
30.700001	72.849	-170.8715
31.100000	72.830	-171.4442
31.500000	72.810	-172.0027
32.000000	72.786	-172.6856
32.500000	72.763	-173.3571
33.000000	72.740	-174.0200
33.500000	72.716	-174.6722
34.000000	72.691	-175.3104
34.500000	72.666	-175.9339
35.000000	72.640	-176.5442
35.500000	72.612	-177.1419
36.000000	72.584	-177.7265
36.500000	72.556	-178.2972
37.000000	72.528	-178.8544
37.500000	72.500	-179.3989
38.200001	72.458	179.8594
38.700001	72.426	179.3433
39.500000	72.375	178.5360
40.000000	72.342	178.0406
40.599998	72.303	177.4564
41.200001	72.266	176.8847
41.799999	72.231	176.3258
42.500000	72.191	175.6899
43.099998	72.155	175.1596
43.700001	72.118	174.6420
44.400002	72.073	174.0499
45.000000	72.035	173.5508
45.500000	72.002	173.1426
46.200001	71.956	172.5869
46.799999	71.917	172.1257
47.500000	71.874	171.6054
48.200001	71.833	171.1050
48.700001	71.807	170.7586
49.400002	71.771	170.2834
50.000000	71.737	169.8810
50.799999	71.681	169.3516
51.500000	71.626	168.8977
52.200001	71.572	168.4513
53.000000	71.512	167.9496
53.799999	71.456	167.4620
54.500000	71.408	167.0505
55.200001	71.361	166.6508
56.000000	71.307	166.2039
57.000000	71.238	165.6603
58.000000	71.170	165.1383
59.000000	71.104	164.6394
60.000000	71.039	164.1583
60.799999	70.988	163.7817
61.500000	70.944	163.4567
62.200001	70.900	163.1352
63.000000	70.849	162.7724
64.000000	70.785	162.3306
65.000000	70.720	161.9079
66.000000	70.656	161.5040
67.000000	70.593	161.1163
68.000000	70.529	160.7481
69.000000	70.463	160.4001
70.000000	70.395	160.0618
71.000000	70.328	159.7210
72.000000	70.265	159.3798
73.000000	70.204	159.0510
74.000000	70.146	158.7425
75.000000	70.087	158.4532
76.199997	70.014	158.1232
77.500000	69.936	157.7748
78.800003	69.861	157.4345
80.000000	69.794	157.1359
81.199997	69.728	156.8591
82.500000	69.658	156.5878
83.800003	69.587	156.3494
85.000000	69.519	156.1487
86.199997	69.447	155.9429
87.500000	69.367	155.6916
88.500000	69.309	155.4745
90.000000	69.227	155.1368
91.199997	69.166	154.8914
92.500000	69.100	154.6656
93.800003	69.031	154.4635
95.000000	68.965	154.2797
96.199997	68.897	154.0965
97.500000	68.824	153.9076
98.800003	68.750	153.7331
100.000000	68.684	153.5799
101.500000	68.606	153.3967
103.000000	68.533	153.2337
104.400002	68.465	153.0964
106.000000	68.386	152.9414
107.500000	68.312	152.8046
109.000000	68.237	152.6806
110.599998	68.156	152.5538
112.000000	68.087	152.4515
113.800003	67.999	152.3346
115.000000	67.940	152.2636
117.199997	67.835	152.1514
118.000000	67.797	152.1151
120.599998	67.678	152.0087
122.000000	67.615	151.9585
124.099998	67.522	151.8861
125.000000	67.483	151.8556
126.500000	67.416	151.8060
128.000000	67.349	151.7601
131.500000	67.192	151.6844
132.000000	67.169	151.6782
134.000000	67.079	151.6641
136.000000	66.989	151.6641
138.000000	66.898	151.6752
140.000000	66.806	151.6988
143.000000	66.669	151.7651
145.000000	66.578	151.8333
147.500000	66.465	151.9466
150.000000	66.351	152.0920
152.500000	66.240	152.2774
155.000000	66.129	152.5193
157.500000	66.018	152.8344
160.000000	65.914	153.2301
162.500000	65.823	153.6915
165.000000	65.752	154.1751
167.500000	65.697	154.6178
170.000000	65.646	154.9739
172.500000	65.587	155.2626
175.000000	65.512	155.5642
177.500000	65.422	155.9752
180.000000	65.325	156.5670
182.500000	65.233	157.3679
185.000000	65.162	158.3511
187.500000	65.129	159.4218
190.000000	65.148	160.4161
192.500000	65.219	161.1446
195.000000	65.325	161.4780
197.500000	65.437	161.4047
200.000000	65.533	161.0156
203.000000	65.608	160.3298
206.000000	65.641	159.6049
209.000000	65.639	158.9709
212.000000	65.609	158.4766
214.000000	65.576	158.2246
218.000000	65.492	157.8713
220.000000	65.444	157.7525
224.000000	65.342	157.6006
227.000000	65.261	157.5507
230.000000	65.178	157.5505
233.000000	65.095	157.5943
236.000000	65.016	157.6761
240.000000	64.914	157.8372
243.000000	64.842	157.9930
247.000000	64.749	158.2374
250.000000	64.684	158.4380
254.000000	64.606	158.7099
258.000000	64.536	158.9695
262.000000	64.466	159.2067
265.000000	64.414	159.3739
269.000000	64.342	159.5972
272.000000	64.287	159.7743
276.000000	64.213	160.0312
280.000000	64.139	160.3152
285.000000	64.047	160.7071
290.000000	63.955	161.1417
295.000000	63.866	161.6275
300.000000	63.779	162.1725
304.000000	63.711	162.6570
307.000000	63.664	163.0516
311.000000	63.607	163.6199
315.000000	63.561	164.2278
320.000000	63.523	165.0057
325.000000	63.507	165.7451
330.000000	63.509	166.3923
335.000000	63.524	166.9220
340.000000	63.544	167.3444
345.000000	63.563	167.6790
350.000000	63.575	167.9323
355.000000	63.576	168.1078
360.000000	63.566	168.2249
365.000000	63.546	168.3188
370.000000	63.518	168.4246
375.000000	63.481	168.5632
382.000000	63.423	168.8236
387.000000	63.381	169.0497
395.000000	63.316	169.4573
400.000000	63.278	169.7341
406.000000	63.233	170.0855
412.000000	63.188	170.4565
418.000000	63.143	170.8454
425.000000	63.093	171.3168
431.000000	63.053	171.7305
437.000000	63.014	172.1494
444.000000	62.970	172.6448
450.000000	62.936	173.0763
455.000000	62.911	173.4394
462.000000	62.880	173.9496
468.000000	62.855	174.3855
475.000000	62.829	174.8903
482.000000	62.803	175.3911
487.000000	62.784	175.7463
494.000000	62.758	176.2404
500.000000	62.736	176.6626
508.000000	62.711	177.2249
515.000000	62.692	177.7166
522.000000	62.673	178.2082
530.000000	62.652	178.7689
538.000000	62.632	179.3286
545.000000	62.615	179.8175
552.000000	62.600	-179.6948
560.000000	62.585	-179.1388
570.000000	62.569	-178.4455
580.000000	62.554	-177.7556
590.000000	62.540	-177.0669
600.000000	62.526	-176.3744
608.000000	62.516	-175.8177
615.000000	62.508	-175.3295
622.000000	62.501	-174.8409
630.000000	62.494	-174.2816
640.000000	62.489	-173.5805
650.000000	62.487	-172.8773
660.000000	62.490	-172.1709
670.000000	62.495	-171.4615
680.000000	62.502	-170.7513
690.000000	62.509	-170.0420
700.000000	62.519	-169.3359
710.000000	62.532	-168.6344
720.000000	62.548	-167.9381
730.000000	62.566	-167.2490
740.000000	62.586	-166.5673
750.000000	62.608	-165.8891
762.000000	62.634	-165.0726
775.000000	62.664	-164.1811
788.000000	62.699	-163.2846
800.000000	62.735	-162.4554
812.000000	62.775	-161.6268
825.000000	62.823	-160.7350
838.000000	62.876	-159.8567
850.000000	62.929	-159.0644
862.000000	62.988	-158.2943
875.000000	63.058	-157.4880
885.000000	63.114	-156.8885
900.000000	63.200	-156.0217
912.000000	63.269	-155.3539
925.000000	63.345	-154.6540
938.000000	63.423	-153.9777
950.000000	63.496	-153.3731
962.000000	63.571	-152.7861
975.000000	63.655	-152.1705
988.000000	63.742	-151.5786
1000.000000	63.825	-151.0563
1015.000000	63.931	-150.4411
1030.000000	64.039	-149.8730
1044.000000	64.141	-149.3882
1060.000000	64.259	-148.8865
1075.000000	64.368	-148.4618
1090.000000	64.475	-148.0745
1106.000000	64.586	-147.6972
1120.000000	64.682	-147.3939
1138.000000	64.804	-147.0334
1150.000000	64.885	-146.8072
1172.000000	65.033	-146.4123
1180.000000	65.088	-146.2723
1206.000000	65.273	-145.8211
1220.000000	65.382	-145.5846
1241.000000	65.564	-145.2678
1250.000000	65.648	-145.1558
1265.000000	65.794	-145.0053
1280.000000	65.942	-144.8945
1315.000000	66.253	-144.7227
1320.000000	66.288	-144.7021
1340.000000	66.399	-144.6193
1360.000000	66.457	-144.5305
1380.000000	66.477	-144.4354
1400.000000	66.483	-144.3369
1430.000000	66.512	-144.1884
1450.000000	66.559	-144.0931
1475.000000	66.650	-143.9828
1500.000000	66.765	-143.8850
1525.000000	66.893	-143.7977
1550.000000	67.026	-143.7168
1575.000000	67.157	-143.6406
1600.000000	67.285	-143.5691
1625.000000	67.409	-143.5010
1650.000000	67.531	-143.4356
1675.000000	67.651	-143.3735
1700.000000	67.770	-143.3160
1725.000000	67.888	-143.2657
1750.000000	68.005	-143.2254
1775.000000	68.121	-143.1972
1800.000000	68.236	-143.1814
1825.000000	68.350	-143.1783
1850.000000	68.465	-143.1882
1875.000000	68.581	-143.2122
1900.000000	68.696	-143.2523
1925.000000	68.811	-143.3105
1950.000000	68.927	-143.3896
1975.000000	69.042	-143.4936
2000.000000	69.158	-143.6268
2030.000000	69.297	-143.8281
2060.000000	69.436	-144.0756
2090.000000	69.573	-144.3699
2120.000000	69.709	-144.7124
2140.000000	69.798	-144.9687
2180.000000	69.971	-145.5501
2200.000000	70.055	-145.8748
2240.000000	70.216	-146.5833
2270.000000	70.330	-147.1570
2300.000000	70.437	-147.7595
2330.000000	70.537	-148.3866
2360.000000	70.630	-149.0363
2400.000000	70.743	-149.9333
2430.000000	70.820	-150.6247
2470.000000	70.911	-151.5634
2500.000000	70.971	-152.2738
2540.000000	71.040	-153.2204
2580.000000	71.098	-154.1595
2620.000000	71.145	-155.0852
2650.000000	71.173	-155.7671
2690.000000	71.203	-156.6552
2720.000000	71.220	-157.3025
2760.000000	71.235	-158.1371
2800.000000	71.243	-158.9357
2850.000000	71.247	-159.8798
2900.000000	71.244	-160.7599
2950.000000	71.233	-161.5739
3000.000000	71.215	-162.3204
3040.000000	71.196	-162.8689
3070.000000	71.181	-163.2523
3110.000000	71.160	-163.7269
3150.000000	71.139	-164.1612
3200.000000	71.114	-164.6498
3250.000000	71.091	-165.0823
3300.000000	71.069	-165.4635
3350.000000	71.047	-165.7981
3400.000000	71.023	-166.0903
3450.000000	70.997	-166.3449
3500.000000	70.970	-166.5660
3550.000000	70.944	-166.7578
3600.000000	70.923	-166.9258
3650.000000	70.911	-167.0754
3700.000000	70.913	-167.2119
3750.000000	70.930	-167.3401
3820.000000	70.975	-167.5139
3870.000000	71.020	-167.6403
3950.000000	71.101	-167.8616
4000.000000	71.152	-168.0217
4060.000000	71.207	-168.2457
4120.000000	71.252	-168.5126
4180.000000	71.283	-168.8282
4250.000000	71.304	-169.2593
4310.000000	71.314	-169.6816
4370.000000	71.323	-170.1536
4440.000000	71.342	-170.7705
4500.000000	71.370	-171.3580
4550.000000	71.401	-171.8897
4620.000000	71.452	-172.6967
4680.000000	71.495	-173.4433
4750.000000	71.538	-174.3727
4820.000000	71.565	-175.3556
4870.000000	71.573	-176.0829
4940.000000	71.566	-177.1236
5000.000000	71.543	-178.0234
5080.000000	71.488	-179.2128
5150.000000	71.416	179.7758
5220.000000	71.323	178.8122
5300.000000	71.193	177.7941
5380.000000	71.038	176.8890
5450.000000	70.884	176.2060
5520.000000	70.721	175.6360
5600.000000	70.530	175.1317
5700.000000	70.293	174.7294
5800.000000	70.068	174.5786
5900.000000	69.865	174.6682
6000.000000	69.690	174.9800
6080.000000	69.564	175.3741
6150.000000	69.462	175.8127
6220.000000	69.368	176.3287
6300.000000	69.272	177.0001
6400.000000	69.178	177.9401
6500.000000	69.125	178.9666
6600.000000	69.126	-179.9772
6700.000000	69.194	-179.0255
6800.000000	69.325	-178.3426
6900.000000	69.503	-177.9904
7000.000000	69.722	-177.9622
7100.000000	69.988	-178.3071
7200.000000	70.306	-179.1448
7300.000000	70.666	179.3805
7400.000000	71.049	177.1437
7500.000000	71.424	174.0679
7620.000000	71.805	169.2740
7750.000000	72.030	162.9362
7880.000000	71.952	155.9062
8000.000000	71.566	149.4010
8120.000000	70.891	143.4401
8250.000000	69.900	138.0737
8380.000000	68.737	134.1058
8500.000000	67.599	131.7185
8620.000000	66.465	130.4534
8750.000000	65.283	130.1564
8850.000000	64.418	130.5502
9000.000000	63.188	131.9490
9120.000000	62.252	133.6602
9250.000000	61.275	136.0672
9380.000000	60.337	139.0632
9500.000000	59.519	142.3625
9620.000000	58.766	146.1429
9750.000000	58.036	150.6933
9880.000000	57.401	155.6001
10000.000000	56.897	160.3595
10150.000000	56.366	166.5600
10300.000000	55.934	173.0511
10440.000000	55.614	179.4428
10600.000000	55.360	-172.7206
10750.000000	55.272	-164.7164
10900.000000	55.398	-156.0382
11060.000000	55.853	-146.3451
11200.000000	56.561	-138.1868
11380.000000	57.841	-129.5358
11500.000000	58.834	-125.5284
11720.000000	60.696	-121.9870
11800.000000	61.339	-121.7004
12060.000000	63.241	-123.0639
12200.000000	64.172	-124.7473
12410.000000	65.507	-128.3491
12500.000000	66.060	-130.3878
12650.000000	66.932	-134.6335
12800.000000	67.689	-140.0716
13150.000000	68.604	-156.8996
13200.000000	68.607	-159.5815
13400.000000	68.289	-170.2402
13600.000000	67.520	-179.8322
13800.000000	66.481	172.4613
14000.000000	65.362	166.8146
14300.000000	63.834	161.3627
14500.000000	62.994	158.8408
14750.000000	62.093	156.0081
15000.000000	61.226	153.0673
15250.000000	60.251	150.0530
15500.000000	59.062	147.3947
15750.000000	57.646	145.6986
16000.000000	56.097	145.5139
16250.000000	54.574	147.1699
16500.000000	53.219	150.7104
16750.000000	52.109	155.9714
17000.000000	51.281	162.7813
17250.000000	50.794	170.8966
17500.000000	50.716	179.3191
17750.000000	51.007	-173.6230
18000.000000	51.490	-168.8663
18250.000000	51.990	-166.2669
18500.000000	52.393	-165.3225
18750.000000	52.635	-165.6308
19000.000000	52.678	-166.9550
19250.000000	52.478	-169.1104
19500.000000	52.016	-171.7910
19750.000000	51.392	-174.4226
20000.000000	50.924	-176.0977
