* Measurement data measured by REW V5.31.3
* Source: Microphone (USB Sound Device        ), MICROPHONE (Master Volume), L, volume: 0.700
* Format: 256k Log Swept Sine, 1 sweep at -12.0 dBFS with no timing reference
* Dated: 29-Jan-2025 17:41:12
* REW Settings:
*  C-weighting compensation: Off
*  Target level: 75.0 dB
* Note: 
* Measurement: Delci AE Silver R
* Smoothing: 1/12 octave
* Frequency Step: 1/48 octave
* Start Frequency: 20.300 Hz
*
* Freq(Hz)	SPL(dB)	Phase(degrees)
20.299999	73.677	-161.3850
20.600000	73.669	-161.8443
20.900000	73.658	-162.4220
21.200001	73.646	-163.0441
21.400000	73.638	-163.4689
21.799999	73.620	-164.3272
22.000000	73.612	-164.7557
22.400000	73.596	-165.5997
22.700001	73.584	-166.2139
23.000000	73.572	-166.8081
23.299999	73.562	-167.3826
23.600000	73.551	-167.9407
24.000000	73.536	-168.6666
24.299999	73.524	-169.2018
24.700001	73.505	-169.9062
25.000000	73.490	-170.4271
25.400000	73.470	-171.1090
25.799999	73.448	-171.7731
26.200001	73.426	-172.4179
26.500000	73.409	-172.8892
26.900000	73.386	-173.5031
27.200001	73.367	-173.9543
27.600000	73.343	-174.5459
28.000000	73.318	-175.1280
28.500000	73.287	-175.8432
29.000000	73.256	-176.5442
29.500000	73.225	-177.2288
30.000000	73.194	-177.8952
30.400000	73.169	-178.4151
30.700001	73.149	-178.7977
31.100000	73.123	-179.2987
31.500000	73.096	-179.7904
32.000000	73.062	179.6067
32.500000	73.030	179.0154
33.000000	72.999	178.4348
33.500000	72.967	177.8649
34.000000	72.936	177.3079
34.500000	72.904	176.7664
35.000000	72.870	176.2413
35.500000	72.836	175.7298
36.000000	72.802	175.2278
36.500000	72.767	174.7331
37.000000	72.733	174.2457
37.500000	72.698	173.7667
38.200001	72.649	173.1085
38.700001	72.613	172.6465
39.500000	72.554	171.9251
40.000000	72.517	171.4883
40.599998	72.474	170.9766
41.200001	72.432	170.4738
41.799999	72.392	169.9806
42.500000	72.346	169.4234
43.099998	72.306	168.9624
43.700001	72.265	168.5117
44.400002	72.217	167.9936
45.000000	72.174	167.5567
45.500000	72.138	167.1995
46.200001	72.088	166.7120
46.799999	72.046	166.3077
47.500000	71.999	165.8526
48.200001	71.956	165.4095
48.700001	71.928	165.0941
49.400002	71.891	164.6490
50.000000	71.855	164.2682
50.799999	71.796	163.7773
51.500000	71.740	163.3718
52.200001	71.684	162.9829
53.000000	71.623	162.5452
53.799999	71.564	162.1105
54.500000	71.514	161.7380
55.200001	71.465	161.3773
56.000000	71.410	160.9781
57.000000	71.341	160.4916
58.000000	71.271	160.0166
59.000000	71.201	159.5576
60.000000	71.132	159.1164
60.799999	71.078	158.7744
61.500000	71.031	158.4816
62.200001	70.984	158.1944
63.000000	70.933	157.8728
64.000000	70.868	157.4816
65.000000	70.804	157.1026
66.000000	70.740	156.7357
67.000000	70.676	156.3811
68.000000	70.610	156.0377
69.000000	70.544	155.7033
70.000000	70.476	155.3776
71.000000	70.410	155.0625
72.000000	70.347	154.7584
73.000000	70.286	154.4642
74.000000	70.225	154.1801
75.000000	70.164	153.9066
76.199997	70.090	153.5943
77.500000	70.010	153.2766
78.800003	69.931	152.9741
80.000000	69.859	152.7016
81.199997	69.788	152.4336
82.500000	69.711	152.1509
83.800003	69.637	151.8792
85.000000	69.568	151.6392
86.199997	69.500	151.4086
87.500000	69.425	151.1683
88.500000	69.369	150.9904
90.000000	69.284	150.7377
91.199997	69.218	150.5469
92.500000	69.147	150.3486
93.800003	69.076	150.1569
95.000000	69.010	149.9858
96.199997	68.944	149.8214
97.500000	68.871	149.6498
98.800003	68.799	149.4834
100.000000	68.734	149.3354
101.500000	68.656	149.1607
103.000000	68.583	148.9969
104.400002	68.515	148.8537
106.000000	68.438	148.7009
107.500000	68.365	148.5642
109.000000	68.291	148.4313
110.599998	68.213	148.2954
112.000000	68.145	148.1830
113.800003	68.057	148.0497
115.000000	67.999	147.9684
117.199997	67.894	147.8336
118.000000	67.856	147.7888
120.599998	67.735	147.6600
122.000000	67.672	147.6000
124.099998	67.579	147.5191
125.000000	67.540	147.4873
126.500000	67.475	147.4365
128.000000	67.410	147.3878
131.500000	67.261	147.2828
132.000000	67.239	147.2687
134.000000	67.154	147.2165
136.000000	67.068	147.1740
138.000000	66.982	147.1431
140.000000	66.895	147.1253
143.000000	66.766	147.1237
145.000000	66.683	147.1372
147.500000	66.581	147.1675
150.000000	66.482	147.2113
152.500000	66.387	147.2670
155.000000	66.295	147.3353
157.500000	66.202	147.4136
160.000000	66.109	147.4974
162.500000	66.020	147.5852
165.000000	65.935	147.6802
167.500000	65.852	147.7861
170.000000	65.769	147.9039
172.500000	65.686	148.0335
175.000000	65.603	148.1740
177.500000	65.518	148.3219
180.000000	65.429	148.4750
182.500000	65.331	148.6337
185.000000	65.221	148.8004
187.500000	65.101	148.9774
190.000000	64.974	149.1675
192.500000	64.850	149.3746
195.000000	64.736	149.6047
197.500000	64.634	149.8647
200.000000	64.544	150.1608
203.000000	64.451	150.5738
206.000000	64.374	151.0630
209.000000	64.307	151.6406
212.000000	64.244	152.3117
214.000000	64.204	152.8082
218.000000	64.134	153.8934
220.000000	64.108	154.4625
224.000000	64.081	155.5885
227.000000	64.083	156.3721
230.000000	64.102	157.0711
233.000000	64.138	157.6603
236.000000	64.188	158.1041
240.000000	64.262	158.4128
243.000000	64.309	158.4307
247.000000	64.341	158.2525
250.000000	64.340	158.0553
254.000000	64.315	157.8259
258.000000	64.275	157.6919
262.000000	64.231	157.6286
265.000000	64.198	157.5901
269.000000	64.152	157.5192
272.000000	64.111	157.4535
276.000000	64.048	157.3755
280.000000	63.975	157.3405
285.000000	63.875	157.3837
290.000000	63.771	157.5185
295.000000	63.666	157.7268
300.000000	63.563	157.9946
304.000000	63.480	158.2470
307.000000	63.417	158.4605
311.000000	63.334	158.7811
315.000000	63.253	159.1458
320.000000	63.157	159.6687
325.000000	63.072	160.2561
330.000000	63.002	160.8701
335.000000	62.945	161.4715
340.000000	62.898	162.0490
345.000000	62.853	162.6172
350.000000	62.805	163.2127
355.000000	62.758	163.8604
360.000000	62.725	164.5418
365.000000	62.715	165.1925
370.000000	62.721	165.7383
375.000000	62.731	166.1432
382.000000	62.733	166.5182
387.000000	62.721	166.7200
395.000000	62.680	167.0434
400.000000	62.646	167.2753
406.000000	62.599	167.5952
412.000000	62.547	167.9627
418.000000	62.492	168.3776
425.000000	62.431	168.9184
431.000000	62.381	169.4231
437.000000	62.333	169.9576
444.000000	62.282	170.6162
450.000000	62.244	171.2107
455.000000	62.219	171.7265
462.000000	62.192	172.4735
468.000000	62.178	173.1235
475.000000	62.173	173.8696
482.000000	62.177	174.5742
487.000000	62.183	175.0401
494.000000	62.194	175.6370
500.000000	62.204	176.1047
508.000000	62.218	176.6826
515.000000	62.231	177.1591
522.000000	62.242	177.6163
530.000000	62.251	178.1203
538.000000	62.258	178.6097
545.000000	62.263	179.0298
552.000000	62.269	179.4449
560.000000	62.278	179.9138
570.000000	62.292	-179.5145
580.000000	62.306	-178.9712
590.000000	62.319	-178.4655
600.000000	62.326	-177.9910
608.000000	62.328	-177.6228
615.000000	62.328	-177.3013
622.000000	62.326	-176.9762
630.000000	62.323	-176.5982
640.000000	62.318	-176.1156
650.000000	62.313	-175.6201
660.000000	62.311	-175.1096
670.000000	62.309	-174.5851
680.000000	62.308	-174.0497
690.000000	62.305	-173.5055
700.000000	62.302	-172.9517
710.000000	62.302	-172.3884
720.000000	62.303	-171.8184
730.000000	62.307	-171.2448
740.000000	62.313	-170.6683
750.000000	62.321	-170.0873
762.000000	62.331	-169.3831
775.000000	62.344	-168.6121
788.000000	62.359	-167.8312
800.000000	62.377	-167.1024
812.000000	62.397	-166.3663
825.000000	62.423	-165.5626
838.000000	62.454	-164.7581
850.000000	62.488	-164.0220
862.000000	62.529	-163.3006
875.000000	62.580	-162.5455
885.000000	62.622	-161.9877
900.000000	62.687	-161.1883
912.000000	62.739	-160.5763
925.000000	62.795	-159.9332
938.000000	62.852	-159.3037
950.000000	62.906	-158.7316
962.000000	62.961	-158.1689
975.000000	63.024	-157.5724
988.000000	63.091	-156.9931
1000.000000	63.156	-156.4772
1015.000000	63.240	-155.8634
1030.000000	63.326	-155.2904
1044.000000	63.410	-154.7965
1060.000000	63.508	-154.2826
1075.000000	63.600	-153.8477
1090.000000	63.690	-153.4547
1106.000000	63.784	-153.0761
1120.000000	63.866	-152.7731
1138.000000	63.971	-152.4142
1150.000000	64.040	-152.1919
1172.000000	64.168	-151.8157
1180.000000	64.216	-151.6881
1206.000000	64.376	-151.3086
1220.000000	64.469	-151.1294
1241.000000	64.617	-150.8967
1250.000000	64.685	-150.8091
1265.000000	64.802	-150.6760
1280.000000	64.921	-150.5540
1315.000000	65.169	-150.2803
1320.000000	65.197	-150.2399
1340.000000	65.278	-150.0731
1360.000000	65.310	-149.8982
1380.000000	65.307	-149.7176
1400.000000	65.290	-149.5339
1430.000000	65.286	-149.2593
1450.000000	65.312	-149.0829
1475.000000	65.377	-148.8763
1500.000000	65.466	-148.6852
1525.000000	65.568	-148.5034
1550.000000	65.675	-148.3243
1575.000000	65.780	-148.1444
1600.000000	65.882	-147.9618
1625.000000	65.982	-147.7759
1650.000000	66.079	-147.5869
1675.000000	66.175	-147.3948
1700.000000	66.270	-147.2029
1725.000000	66.365	-147.0146
1750.000000	66.459	-146.8312
1775.000000	66.553	-146.6531
1800.000000	66.645	-146.4796
1825.000000	66.739	-146.3096
1850.000000	66.834	-146.1440
1875.000000	66.931	-145.9857
1900.000000	67.031	-145.8396
1925.000000	67.132	-145.7121
1950.000000	67.236	-145.6107
1975.000000	67.341	-145.5430
2000.000000	67.448	-145.5138
2030.000000	67.576	-145.5319
2060.000000	67.702	-145.6066
2090.000000	67.826	-145.7324
2120.000000	67.947	-145.9012
2140.000000	68.024	-146.0343
2180.000000	68.175	-146.3458
2200.000000	68.248	-146.5234
2240.000000	68.389	-146.9183
2270.000000	68.489	-147.2450
2300.000000	68.585	-147.5942
2330.000000	68.677	-147.9621
2360.000000	68.763	-148.3460
2400.000000	68.871	-148.8812
2430.000000	68.946	-149.2996
2470.000000	69.039	-149.8765
2500.000000	69.102	-150.3192
2540.000000	69.180	-150.9166
2580.000000	69.248	-151.5180
2620.000000	69.310	-152.1204
2650.000000	69.351	-152.5710
2690.000000	69.400	-153.1662
2720.000000	69.433	-153.6067
2760.000000	69.470	-154.1842
2800.000000	69.503	-154.7482
2850.000000	69.539	-155.4317
2900.000000	69.569	-156.0888
2950.000000	69.591	-156.7175
3000.000000	69.606	-157.3166
3040.000000	69.612	-157.7725
3070.000000	69.614	-158.0998
3110.000000	69.613	-158.5161
3150.000000	69.612	-158.9091
3200.000000	69.608	-159.3668
3250.000000	69.603	-159.7859
3300.000000	69.595	-160.1662
3350.000000	69.583	-160.5093
3400.000000	69.566	-160.8175
3450.000000	69.543	-161.0916
3500.000000	69.515	-161.3338
3550.000000	69.484	-161.5471
3600.000000	69.455	-161.7348
3650.000000	69.431	-161.8985
3700.000000	69.418	-162.0390
3750.000000	69.415	-162.1587
3820.000000	69.429	-162.2969
3870.000000	69.447	-162.3772
3950.000000	69.479	-162.4789
4000.000000	69.497	-162.5300
4060.000000	69.509	-162.5840
4120.000000	69.509	-162.6326
4180.000000	69.493	-162.6773
4250.000000	69.460	-162.7269
4310.000000	69.425	-162.7706
4370.000000	69.390	-162.8192
4440.000000	69.359	-162.8830
4500.000000	69.346	-162.9414
4550.000000	69.347	-162.9913
4620.000000	69.361	-163.0627
4680.000000	69.378	-163.1234
4750.000000	69.399	-163.1884
4820.000000	69.416	-163.2445
4870.000000	69.425	-163.2794
4940.000000	69.432	-163.3202
5000.000000	69.434	-163.3446
5080.000000	69.430	-163.3587
5150.000000	69.422	-163.3539
5220.000000	69.408	-163.3319
5300.000000	69.386	-163.2835
5380.000000	69.358	-163.2096
5450.000000	69.329	-163.1239
5520.000000	69.301	-163.0178
5600.000000	69.276	-162.8710
5700.000000	69.255	-162.6494
5800.000000	69.251	-162.3851
5900.000000	69.271	-162.0780
6000.000000	69.311	-161.7311
6080.000000	69.352	-161.4308
6150.000000	69.392	-161.1578
6220.000000	69.433	-160.8821
6300.000000	69.486	-160.5740
6400.000000	69.564	-160.2192
6500.000000	69.664	-159.9272
6600.000000	69.788	-159.7317
6700.000000	69.941	-159.6673
6800.000000	70.124	-159.7662
6900.000000	70.339	-160.0605
7000.000000	70.586	-160.5900
7100.000000	70.871	-161.4152
7200.000000	71.201	-162.6288
7300.000000	71.577	-164.3575
7400.000000	71.988	-166.7531
7500.000000	72.413	-169.9720
7620.000000	72.877	-175.0695
7750.000000	73.197	177.9554
7880.000000	73.180	169.9865
8000.000000	72.798	162.5396
8120.000000	72.076	155.7979
8250.000000	70.993	149.9515
8380.000000	69.718	145.9471
8500.000000	68.479	143.8974
8620.000000	67.256	143.2891
8750.000000	66.001	144.0497
8850.000000	65.103	145.5184
9000.000000	63.879	149.0178
9120.000000	63.021	152.8600
9250.000000	62.245	157.9522
9380.000000	61.678	163.7310
9500.000000	61.378	169.2057
9620.000000	61.296	174.2522
9750.000000	61.397	178.7238
9880.000000	61.606	-178.0438
10000.000000	61.822	-176.0335
10150.000000	62.066	-174.4242
10300.000000	62.259	-173.3696
10440.000000	62.403	-172.6127
10600.000000	62.551	-171.8873
10750.000000	62.702	-171.3521
10900.000000	62.880	-171.0405
11060.000000	63.102	-171.0729
11200.000000	63.309	-171.4985
11380.000000	63.567	-172.6731
11500.000000	63.717	-173.8598
11720.000000	63.915	-176.7885
11800.000000	63.954	-178.0471
12060.000000	63.929	177.4828
12200.000000	63.812	175.0374
12410.000000	63.513	171.6086
12500.000000	63.346	170.2795
12650.000000	63.025	168.2856
12800.000000	62.655	166.5706
13150.000000	61.587	163.4815
13200.000000	61.410	163.1180
13400.000000	60.660	161.7830
13600.000000	59.886	160.5558
13800.000000	59.151	159.3588
14000.000000	58.477	158.1606
14300.000000	57.561	156.3512
14500.000000	56.983	155.1203
14750.000000	56.244	153.5158
15000.000000	55.422	151.8275
15250.000000	54.434	150.2606
15500.000000	53.216	149.3418
15750.000000	51.801	149.6349
16000.000000	50.323	151.4233
16250.000000	48.946	154.7103
16500.000000	47.786	159.3421
16750.000000	46.887	165.0762
17000.000000	46.257	171.5616
17250.000000	45.888	178.2117
17500.000000	45.729	-175.8275
17750.000000	45.657	-171.1611
18000.000000	45.541	-167.1551
18250.000000	45.447	-162.4503
18500.000000	45.546	-157.4480
18750.000000	45.789	-153.9797
19000.000000	45.956	-152.8348
19250.000000	45.865	-153.5032
19500.000000	45.458	-155.0051
19750.000000	44.856	-156.4439
20000.000000	44.400	-157.2353
