* Measurement data measured by REW V5.31
* Source: Microphone (4- USB Audio Device), MICROPHONE (Master Volume), R, volume: 0.250
* Format: 256k Log Swept Sine, 1 sweep at -12.0 dBFS with no timing reference
* Dated: 19-Apr-2024 10:54:10
* REW Settings:
*  C-weighting compensation: Off
*  Target level: 75.0 dB
* Note: 
* Measurement: Kefine Delci L
* Smoothing: 1/12 octave
* Frequency Step: 1/48 octave
* Start Frequency: 20.300 Hz
*
* Freq(Hz)	SPL(dB)	Phase(degrees)
20.299999	78.457	-118.2662
20.600000	78.503	-118.8536
20.900000	78.560	-119.5891
21.200001	78.621	-120.3763
21.400000	78.661	-120.9107
21.799999	78.741	-121.9831
22.000000	78.780	-122.5162
22.400000	78.857	-123.5671
22.700001	78.912	-124.3373
23.000000	78.964	-125.0909
23.299999	79.014	-125.8295
23.600000	79.061	-126.5563
24.000000	79.120	-127.5121
24.299999	79.162	-128.2210
24.700001	79.215	-129.1547
25.000000	79.253	-129.8439
25.400000	79.302	-130.7440
25.799999	79.349	-131.6201
26.200001	79.394	-132.4727
26.500000	79.426	-133.0989
26.900000	79.465	-133.9199
27.200001	79.493	-134.5273
27.600000	79.526	-135.3278
28.000000	79.556	-136.1172
28.500000	79.591	-137.0852
29.000000	79.622	-138.0285
29.500000	79.652	-138.9460
30.000000	79.680	-139.8402
30.400000	79.701	-140.5410
30.700001	79.715	-141.0588
31.100000	79.732	-141.7387
31.500000	79.746	-142.4060
32.000000	79.763	-143.2213
32.500000	79.778	-144.0146
33.000000	79.791	-144.7859
33.500000	79.803	-145.5358
34.000000	79.812	-146.2657
34.500000	79.819	-146.9780
35.000000	79.824	-147.6745
35.500000	79.827	-148.3563
36.000000	79.829	-149.0237
36.500000	79.829	-149.6764
37.000000	79.829	-150.3139
37.500000	79.828	-150.9355
38.200001	79.824	-151.7774
38.700001	79.821	-152.3585
39.500000	79.815	-153.2567
40.000000	79.810	-153.8006
40.599998	79.803	-154.4366
41.200001	79.794	-155.0549
41.799999	79.783	-155.6570
42.500000	79.770	-156.3428
43.099998	79.759	-156.9178
43.700001	79.748	-157.4805
44.400002	79.734	-158.1200
45.000000	79.722	-158.6539
45.500000	79.711	-159.0894
46.200001	79.693	-159.6845
46.799999	79.677	-160.1798
47.500000	79.655	-160.7397
48.200001	79.630	-161.2811
48.700001	79.610	-161.6568
49.400002	79.581	-162.1680
50.000000	79.555	-162.5943
50.799999	79.521	-163.1512
51.500000	79.492	-163.6307
52.200001	79.462	-164.1021
53.000000	79.426	-164.6300
53.799999	79.389	-165.1466
54.500000	79.355	-165.5883
55.200001	79.319	-166.0176
56.000000	79.277	-166.4911
57.000000	79.223	-167.0577
58.000000	79.167	-167.5981
59.000000	79.111	-168.1164
60.000000	79.056	-168.6152
60.799999	79.012	-169.0011
61.500000	78.973	-169.3304
62.200001	78.934	-169.6519
63.000000	78.889	-170.0087
64.000000	78.833	-170.4371
65.000000	78.776	-170.8492
66.000000	78.718	-171.2474
67.000000	78.660	-171.6288
68.000000	78.602	-171.9888
69.000000	78.543	-172.3250
70.000000	78.482	-172.6371
71.000000	78.421	-172.9282
72.000000	78.359	-173.2034
73.000000	78.297	-173.4656
74.000000	78.235	-173.7145
75.000000	78.173	-173.9496
76.199997	78.100	-174.2121
77.500000	78.021	-174.4654
78.800003	77.944	-174.6796
80.000000	77.873	-174.8423
81.199997	77.804	-174.9773
82.500000	77.729	-175.0979
83.800003	77.656	-175.1938
85.000000	77.591	-175.2638
86.199997	77.526	-175.3188
87.500000	77.457	-175.3625
88.500000	77.404	-175.3855
90.000000	77.325	-175.4057
91.199997	77.262	-175.4112
92.500000	77.195	-175.4071
93.800003	77.128	-175.3915
95.000000	77.066	-175.3654
96.199997	77.005	-175.3281
97.500000	76.940	-175.2757
98.800003	76.875	-175.2122
100.000000	76.817	-175.1467
101.500000	76.746	-175.0596
103.000000	76.676	-174.9667
104.400002	76.613	-174.8714
106.000000	76.543	-174.7497
107.500000	76.477	-174.6248
109.000000	76.413	-174.4934
110.599998	76.345	-174.3493
112.000000	76.286	-174.2207
113.800003	76.209	-174.0515
115.000000	76.159	-173.9381
117.199997	76.067	-173.7334
118.000000	76.033	-173.6587
120.599998	75.926	-173.4054
122.000000	75.870	-173.2616
124.099998	75.789	-173.0375
125.000000	75.754	-172.9385
126.500000	75.697	-172.7704
128.000000	75.640	-172.5994
131.500000	75.507	-172.1763
132.000000	75.488	-172.1117
134.000000	75.412	-171.8415
136.000000	75.338	-171.5508
138.000000	75.266	-171.2416
140.000000	75.194	-170.9191
143.000000	75.090	-170.4250
145.000000	75.021	-170.0905
147.500000	74.936	-169.6559
150.000000	74.852	-169.1967
152.500000	74.766	-168.7160
155.000000	74.679	-168.2275
157.500000	74.593	-167.7396
160.000000	74.509	-167.2524
162.500000	74.427	-166.7596
165.000000	74.346	-166.2520
167.500000	74.266	-165.7258
170.000000	74.185	-165.1865
172.500000	74.101	-164.6448
175.000000	74.017	-164.1062
177.500000	73.932	-163.5680
180.000000	73.848	-163.0293
182.500000	73.766	-162.4909
185.000000	73.685	-161.9551
187.500000	73.606	-161.4273
190.000000	73.530	-160.9144
192.500000	73.459	-160.4187
195.000000	73.391	-159.9381
197.500000	73.325	-159.4679
200.000000	73.261	-159.0012
203.000000	73.185	-158.4371
206.000000	73.110	-157.8640
209.000000	73.039	-157.2829
212.000000	72.973	-156.6980
214.000000	72.931	-156.3065
218.000000	72.852	-155.5167
220.000000	72.814	-155.1167
224.000000	72.737	-154.3104
227.000000	72.678	-153.7059
230.000000	72.619	-153.1036
233.000000	72.560	-152.5028
236.000000	72.503	-151.9054
240.000000	72.427	-151.1132
243.000000	72.370	-150.5153
247.000000	72.294	-149.7099
250.000000	72.238	-149.1033
254.000000	72.161	-148.2933
258.000000	72.084	-147.4785
262.000000	72.009	-146.6562
265.000000	71.954	-146.0309
269.000000	71.884	-145.1853
272.000000	71.834	-144.5474
276.000000	71.770	-143.6981
280.000000	71.707	-142.8530
285.000000	71.626	-141.8024
290.000000	71.544	-140.7515
295.000000	71.464	-139.6982
300.000000	71.388	-138.6499
304.000000	71.330	-137.8122
307.000000	71.288	-137.1777
311.000000	71.233	-136.3197
315.000000	71.177	-135.4479
320.000000	71.109	-134.3376
325.000000	71.042	-133.2021
330.000000	70.980	-132.0375
335.000000	70.926	-130.8398
340.000000	70.877	-129.6118
345.000000	70.833	-128.3643
350.000000	70.795	-127.1174
355.000000	70.763	-125.8908
360.000000	70.736	-124.6936
365.000000	70.714	-123.5284
370.000000	70.693	-122.3895
375.000000	70.673	-121.2647
382.000000	70.642	-119.7050
387.000000	70.617	-118.6047
395.000000	70.571	-116.8627
400.000000	70.539	-115.7856
406.000000	70.500	-114.5146
412.000000	70.459	-113.2668
418.000000	70.416	-112.0194
425.000000	70.367	-110.5434
431.000000	70.327	-109.2683
437.000000	70.289	-107.9927
444.000000	70.245	-106.4962
450.000000	70.208	-105.1993
455.000000	70.179	-104.1153
462.000000	70.143	-102.6123
468.000000	70.117	-101.3431
475.000000	70.092	-99.8783
482.000000	70.066	-98.4374
487.000000	70.047	-97.4329
494.000000	70.020	-96.0690
500.000000	69.997	-94.9369
508.000000	69.965	-93.4659
515.000000	69.937	-92.2033
522.000000	69.908	-90.9501
530.000000	69.878	-89.5099
538.000000	69.852	-88.0519
545.000000	69.831	-86.7599
552.000000	69.810	-85.4541
560.000000	69.788	-83.9590
570.000000	69.762	-82.1061
580.000000	69.739	-80.2753
590.000000	69.717	-78.4674
600.000000	69.695	-76.6648
608.000000	69.678	-75.2171
615.000000	69.665	-73.9439
622.000000	69.653	-72.6665
630.000000	69.639	-71.1986
640.000000	69.621	-69.3310
650.000000	69.604	-67.4044
660.000000	69.593	-65.3993
670.000000	69.590	-63.3057
680.000000	69.592	-61.1410
690.000000	69.597	-58.9518
700.000000	69.604	-56.7876
710.000000	69.610	-54.6783
720.000000	69.616	-52.6231
730.000000	69.624	-50.5949
740.000000	69.636	-48.5688
750.000000	69.654	-46.5308
762.000000	69.682	-44.0465
775.000000	69.718	-41.3055
788.000000	69.758	-38.5445
800.000000	69.798	-36.0044
812.000000	69.841	-33.4853
825.000000	69.892	-30.7784
838.000000	69.950	-28.0965
850.000000	70.009	-25.6436
862.000000	70.070	-23.1903
875.000000	70.141	-20.5145
885.000000	70.200	-18.4476
900.000000	70.296	-15.3456
912.000000	70.375	-12.8839
925.000000	70.460	-10.2610
938.000000	70.547	-7.6891
950.000000	70.631	-5.3566
962.000000	70.718	-3.0630
975.000000	70.815	-0.6289
988.000000	70.913	1.7337
1000.000000	71.002	3.8412
1015.000000	71.111	6.4086
1030.000000	71.222	8.9656
1044.000000	71.330	11.3920
1060.000000	71.463	14.2253
1075.000000	71.592	16.8859
1090.000000	71.722	19.4651
1106.000000	71.853	22.0630
1120.000000	71.961	24.2142
1138.000000	72.095	26.8963
1150.000000	72.185	28.6864
1172.000000	72.352	32.0495
1180.000000	72.412	33.2983
1206.000000	72.599	37.4002
1220.000000	72.691	39.6312
1241.000000	72.827	43.0134
1250.000000	72.886	44.4689
1265.000000	72.984	46.8756
1280.000000	73.078	49.2213
1315.000000	73.276	54.2815
1320.000000	73.302	54.9555
1340.000000	73.401	57.5712
1360.000000	73.497	60.1231
1380.000000	73.592	62.6516
1400.000000	73.685	65.1501
1430.000000	73.815	68.8095
1450.000000	73.901	71.1807
1475.000000	74.009	74.0468
1500.000000	74.114	76.7838
1525.000000	74.224	79.3510
1550.000000	74.333	81.7463
1575.000000	74.442	84.0295
1600.000000	74.556	86.2794
1625.000000	74.672	88.5231
1650.000000	74.783	90.7418
1675.000000	74.890	92.9883
1700.000000	75.000	95.3334
1725.000000	75.115	97.7734
1750.000000	75.227	100.2393
1775.000000	75.335	102.6756
1800.000000	75.440	105.0821
1825.000000	75.545	107.4743
1850.000000	75.648	109.8532
1875.000000	75.750	112.2194
1900.000000	75.849	114.5812
1925.000000	75.946	116.9524
1950.000000	76.042	119.3415
1975.000000	76.136	121.7432
2000.000000	76.228	124.1424
2030.000000	76.334	127.0090
2060.000000	76.438	129.8773
2090.000000	76.542	132.7350
2120.000000	76.641	135.5352
2140.000000	76.703	137.3583
2180.000000	76.822	140.9308
2200.000000	76.880	142.6892
2240.000000	76.988	146.1165
2270.000000	77.063	148.5588
2300.000000	77.135	150.8472
2330.000000	77.203	152.9465
2360.000000	77.268	154.8200
2400.000000	77.347	156.9296
2430.000000	77.400	158.2237
2470.000000	77.464	159.6521
2500.000000	77.509	160.5893
2540.000000	77.565	161.7706
2580.000000	77.614	162.9709
2620.000000	77.660	164.2624
2650.000000	77.692	165.2864
2690.000000	77.727	166.6442
2720.000000	77.747	167.6070
2760.000000	77.767	168.7995
2800.000000	77.782	169.9012
2850.000000	77.796	171.0848
2900.000000	77.797	171.9423
2950.000000	77.787	172.5560
3000.000000	77.773	173.1626
3040.000000	77.758	173.7749
3070.000000	77.745	174.3528
3110.000000	77.727	175.3053
3150.000000	77.708	176.4537
3200.000000	77.681	178.0996
3250.000000	77.653	179.9066
3300.000000	77.623	-178.1654
3350.000000	77.596	-176.1191
3400.000000	77.571	-173.9897
3450.000000	77.547	-171.8246
3500.000000	77.528	-169.6279
3550.000000	77.517	-167.4891
3600.000000	77.506	-165.6116
3650.000000	77.491	-164.0847
3700.000000	77.476	-162.8094
3750.000000	77.462	-161.5914
3820.000000	77.455	-159.6770
3870.000000	77.455	-158.1963
3950.000000	77.447	-155.9728
4000.000000	77.444	-154.6885
4060.000000	77.444	-153.2364
4120.000000	77.443	-151.8591
4180.000000	77.448	-150.3576
4250.000000	77.463	-148.2638
4310.000000	77.481	-146.2697
4370.000000	77.499	-144.3063
4440.000000	77.515	-142.2287
4500.000000	77.531	-140.6390
4550.000000	77.547	-139.4948
4620.000000	77.563	-138.3301
4680.000000	77.568	-137.7280
4750.000000	77.572	-137.1977
4820.000000	77.576	-136.6143
4870.000000	77.576	-136.1627
4940.000000	77.570	-135.5306
5000.000000	77.559	-135.0287
5080.000000	77.533	-134.4466
5150.000000	77.500	-134.0081
5220.000000	77.455	-133.5878
5300.000000	77.393	-133.0513
5380.000000	77.319	-132.5961
5450.000000	77.236	-132.5296
5520.000000	77.134	-132.8806
5600.000000	77.000	-133.6678
5700.000000	76.815	-134.8067
5800.000000	76.622	-135.7713
5900.000000	76.420	-136.6150
6000.000000	76.210	-137.2917
6080.000000	76.047	-137.4103
6150.000000	75.916	-137.0609
6220.000000	75.795	-136.3657
6300.000000	75.667	-135.3845
6400.000000	75.521	-134.1653
6500.000000	75.399	-132.9433
6600.000000	75.310	-131.6546
6700.000000	75.260	-130.4851
6800.000000	75.247	-129.7958
6900.000000	75.273	-129.7921
7000.000000	75.341	-130.1970
7100.000000	75.461	-130.5348
7200.000000	75.625	-130.7605
7300.000000	75.819	-131.1389
7400.000000	76.033	-131.8304
7500.000000	76.255	-132.8491
7620.000000	76.513	-134.3069
7750.000000	76.753	-135.7898
7880.000000	76.915	-137.2810
8000.000000	76.957	-139.1863
8120.000000	76.868	-141.8599
8250.000000	76.612	-145.4032
8380.000000	76.196	-149.2834
8500.000000	75.680	-152.9794
8620.000000	75.068	-156.4244
8750.000000	74.340	-159.5063
8850.000000	73.758	-161.4418
9000.000000	72.888	-163.9945
9120.000000	72.222	-165.7945
9250.000000	71.565	-167.2808
9380.000000	70.995	-168.2155
9500.000000	70.556	-168.7658
9620.000000	70.207	-169.1945
9750.000000	69.933	-169.6852
9880.000000	69.758	-170.3961
10000.000000	69.666	-171.3416
10150.000000	69.620	-172.7941
10300.000000	69.620	-174.3680
10440.000000	69.635	-175.9788
10600.000000	69.667	-177.8791
10750.000000	69.748	-179.2650
10900.000000	69.952	-179.8709
11060.000000	70.420	-179.8347
11200.000000	71.103	179.8560
11380.000000	72.302	176.9305
11500.000000	73.180	172.5452
11720.000000	74.609	159.8246
11800.000000	75.000	154.2358
12060.000000	75.598	135.0880
12200.000000	75.464	125.1290
12410.000000	74.715	112.0524
12500.000000	74.228	107.4187
12650.000000	73.258	101.1500
12800.000000	72.156	96.5044
13150.000000	69.438	89.3838
13200.000000	69.061	88.6679
13400.000000	67.627	86.5852
13600.000000	66.333	85.3009
13800.000000	65.172	84.0103
14000.000000	64.141	82.4805
14300.000000	62.819	79.9935
14500.000000	62.051	78.5223
14750.000000	61.198	77.8745
15000.000000	60.453	79.0444
15250.000000	59.835	82.0728
15500.000000	59.380	87.1412
15750.000000	59.116	95.2748
16000.000000	59.059	109.6043
16250.000000	59.157	132.0913
16500.000000	59.265	158.9046
16750.000000	59.245	-175.3615
17000.000000	59.037	-151.8164
17250.000000	58.657	-129.0897
17500.000000	58.155	-105.3730
17750.000000	57.589	-79.5569
18000.000000	56.988	-52.1115
18250.000000	56.342	-24.7346
18500.000000	55.589	1.5978
18750.000000	54.724	29.2457
19000.000000	53.896	60.6974
19250.000000	53.273	91.8765
19500.000000	52.870	117.6375
19750.000000	52.628	136.6520
20000.000000	52.513	147.0394
