* Measurement data measured by REW V5.31.3
* Source: Microphone (USB Sound Device        ), MICROPHONE (Master Volume), L, volume: 0.700
* Format: 256k Log Swept Sine, 1 sweep at -12.0 dBFS with no timing reference
* Dated: 29-Jan-2025 17:34:25
* REW Settings:
*  C-weighting compensation: Off
*  Target level: 75.0 dB
* Note: 
* Measurement: Kefine Klean B L
* Smoothing: 1/12 octave
* Frequency Step: 1/48 octave
* Start Frequency: 20.300 Hz
*
* Freq(Hz)	SPL(dB)	Phase(degrees)
20.299999	71.732	-152.4834
20.600000	71.742	-153.0052
20.900000	71.753	-153.6562
21.200001	71.765	-154.3499
21.400000	71.773	-154.8197
21.799999	71.788	-155.7612
22.000000	71.796	-156.2290
22.400000	71.811	-157.1500
22.700001	71.821	-157.8220
23.000000	71.831	-158.4749
23.299999	71.841	-159.1087
23.600000	71.849	-159.7253
24.000000	71.858	-160.5265
24.299999	71.861	-161.1153
24.700001	71.864	-161.8876
25.000000	71.865	-162.4580
25.400000	71.866	-163.2064
25.799999	71.866	-163.9397
26.200001	71.865	-164.6566
26.500000	71.864	-165.1829
26.900000	71.861	-165.8690
27.200001	71.858	-166.3724
27.600000	71.853	-167.0304
28.000000	71.848	-167.6760
28.500000	71.839	-168.4694
29.000000	71.829	-169.2493
29.500000	71.816	-170.0132
30.000000	71.803	-170.7574
30.400000	71.791	-171.3371
30.700001	71.781	-171.7631
31.100000	71.769	-172.3208
31.500000	71.756	-172.8684
32.000000	71.740	-173.5402
32.500000	71.725	-174.1982
33.000000	71.709	-174.8420
33.500000	71.691	-175.4715
34.000000	71.673	-176.0873
34.500000	71.653	-176.6894
35.000000	71.632	-177.2768
35.500000	71.610	-177.8495
36.000000	71.588	-178.4095
36.500000	71.566	-178.9590
37.000000	71.544	-179.4995
37.500000	71.522	179.9698
38.200001	71.487	179.2456
38.700001	71.460	178.7419
39.500000	71.415	177.9580
40.000000	71.388	177.4806
40.599998	71.355	176.9197
41.200001	71.324	176.3717
41.799999	71.295	175.8373
42.500000	71.261	175.2316
43.099998	71.230	174.7255
43.700001	71.197	174.2288
44.400002	71.157	173.6594
45.000000	71.123	173.1816
45.500000	71.093	172.7924
46.200001	71.051	172.2629
46.799999	71.016	171.8232
47.500000	70.976	171.3233
48.200001	70.940	170.8336
48.700001	70.916	170.4898
49.400002	70.885	170.0190
50.000000	70.855	169.6263
50.799999	70.806	169.1174
51.500000	70.756	168.6839
52.200001	70.705	168.2602
53.000000	70.649	167.7868
53.799999	70.596	167.3248
54.500000	70.551	166.9305
55.200001	70.507	166.5459
56.000000	70.457	166.1185
57.000000	70.395	165.6016
58.000000	70.333	165.1027
59.000000	70.269	164.6223
60.000000	70.207	164.1589
60.799999	70.157	163.7981
61.500000	70.114	163.4890
62.200001	70.072	163.1864
63.000000	70.024	162.8496
64.000000	69.965	162.4433
65.000000	69.906	162.0524
66.000000	69.848	161.6737
67.000000	69.789	161.3062
68.000000	69.729	160.9503
69.000000	69.666	160.6063
70.000000	69.603	160.2742
71.000000	69.541	159.9535
72.000000	69.482	159.6438
73.000000	69.424	159.3458
74.000000	69.368	159.0599
75.000000	69.311	158.7855
76.199997	69.241	158.4703
77.500000	69.166	158.1444
78.800003	69.090	157.8319
80.000000	69.022	157.5545
81.199997	68.954	157.2886
82.500000	68.881	157.0158
83.800003	68.811	156.7607
85.000000	68.747	156.5397
86.199997	68.683	156.3292
87.500000	68.613	156.1095
88.500000	68.560	155.9445
90.000000	68.482	155.6997
91.199997	68.420	155.5075
92.500000	68.354	155.3058
93.800003	68.288	155.1133
95.000000	68.226	154.9453
96.199997	68.162	154.7883
97.500000	68.093	154.6303
98.800003	68.023	154.4849
100.000000	67.962	154.3612
101.500000	67.889	154.2168
103.000000	67.822	154.0792
104.400002	67.761	153.9536
106.000000	67.690	153.8136
107.500000	67.622	153.6875
109.000000	67.553	153.5677
110.599998	67.479	153.4484
112.000000	67.415	153.3524
113.800003	67.333	153.2428
115.000000	67.278	153.1780
117.199997	67.179	153.0729
118.000000	67.143	153.0390
120.599998	67.029	152.9422
122.000000	66.969	152.8970
124.099998	66.880	152.8425
125.000000	66.843	152.8244
126.500000	66.781	152.7993
128.000000	66.719	152.7792
131.500000	66.577	152.7536
132.000000	66.557	152.7524
134.000000	66.476	152.7532
136.000000	66.396	152.7637
138.000000	66.314	152.7850
140.000000	66.233	152.8160
143.000000	66.113	152.8815
145.000000	66.035	152.9407
147.500000	65.937	153.0346
150.000000	65.842	153.1485
152.500000	65.750	153.2856
155.000000	65.659	153.4498
157.500000	65.568	153.6446
160.000000	65.479	153.8734
162.500000	65.396	154.1370
165.000000	65.324	154.4208
167.500000	65.258	154.6992
170.000000	65.195	154.9545
172.500000	65.129	155.1947
175.000000	65.056	155.4556
177.500000	64.975	155.7841
180.000000	64.889	156.2171
182.500000	64.803	156.7715
185.000000	64.725	157.4341
187.500000	64.666	158.1517
190.000000	64.637	158.8308
192.500000	64.643	159.3565
195.000000	64.675	159.6422
197.500000	64.717	159.6757
200.000000	64.753	159.5146
203.000000	64.777	159.1954
206.000000	64.780	158.8703
209.000000	64.766	158.6165
212.000000	64.736	158.4542
214.000000	64.708	158.3933
218.000000	64.637	158.3579
220.000000	64.597	158.3720
224.000000	64.510	158.4501
227.000000	64.441	158.5469
230.000000	64.370	158.6712
233.000000	64.301	158.8206
236.000000	64.233	158.9927
240.000000	64.147	159.2530
243.000000	64.085	159.4691
247.000000	64.005	159.7793
250.000000	63.949	160.0219
254.000000	63.881	160.3476
258.000000	63.819	160.6629
262.000000	63.757	160.9637
265.000000	63.710	161.1844
269.000000	63.647	161.4803
272.000000	63.600	161.7086
276.000000	63.538	162.0258
280.000000	63.476	162.3583
285.000000	63.399	162.7936
290.000000	63.323	163.2529
295.000000	63.249	163.7429
300.000000	63.175	164.2700
304.000000	63.117	164.7216
307.000000	63.075	165.0793
311.000000	63.023	165.5828
315.000000	62.977	166.1137
320.000000	62.932	166.8026
325.000000	62.901	167.4916
330.000000	62.884	168.1458
335.000000	62.880	168.7400
340.000000	62.884	169.2637
345.000000	62.891	169.7164
350.000000	62.894	170.1024
355.000000	62.889	170.4295
360.000000	62.878	170.7137
365.000000	62.863	170.9767
370.000000	62.844	171.2389
375.000000	62.820	171.5127
382.000000	62.781	171.9197
387.000000	62.753	172.2230
395.000000	62.710	172.7232
400.000000	62.683	173.0447
406.000000	62.650	173.4407
412.000000	62.615	173.8501
418.000000	62.579	174.2746
425.000000	62.539	174.7874
431.000000	62.506	175.2391
437.000000	62.475	175.6999
444.000000	62.440	176.2456
450.000000	62.413	176.7167
455.000000	62.394	177.1095
462.000000	62.371	177.6585
468.000000	62.353	178.1281
475.000000	62.333	178.6754
482.000000	62.313	179.2208
487.000000	62.298	179.6087
494.000000	62.277	-179.8506
500.000000	62.260	-179.3891
508.000000	62.241	-178.7748
515.000000	62.226	-178.2343
522.000000	62.212	-177.6889
530.000000	62.195	-177.0617
538.000000	62.180	-176.4338
545.000000	62.169	-175.8855
552.000000	62.160	-175.3393
560.000000	62.152	-174.7177
570.000000	62.146	-173.9431
580.000000	62.141	-173.1688
590.000000	62.138	-172.3953
600.000000	62.135	-171.6252
608.000000	62.134	-171.0129
615.000000	62.134	-170.4803
622.000000	62.135	-169.9493
630.000000	62.137	-169.3420
640.000000	62.141	-168.5804
650.000000	62.148	-167.8158
660.000000	62.159	-167.0491
670.000000	62.173	-166.2809
680.000000	62.189	-165.5127
690.000000	62.205	-164.7476
700.000000	62.223	-163.9862
710.000000	62.243	-163.2278
720.000000	62.264	-162.4718
730.000000	62.288	-161.7156
740.000000	62.314	-160.9566
750.000000	62.342	-160.1929
762.000000	62.379	-159.2694
775.000000	62.423	-158.2645
788.000000	62.472	-157.2614
800.000000	62.522	-156.3414
812.000000	62.577	-155.4326
825.000000	62.641	-154.4669
838.000000	62.708	-153.5277
850.000000	62.773	-152.6853
862.000000	62.843	-151.8639
875.000000	62.923	-150.9967
885.000000	62.987	-150.3452
900.000000	63.085	-149.3920
912.000000	63.165	-148.6501
925.000000	63.252	-147.8675
938.000000	63.342	-147.1083
950.000000	63.426	-146.4300
962.000000	63.513	-145.7745
975.000000	63.610	-145.0900
988.000000	63.709	-144.4339
1000.000000	63.804	-143.8568
1015.000000	63.922	-143.1777
1030.000000	64.040	-142.5455
1044.000000	64.151	-141.9936
1060.000000	64.278	-141.4025
1075.000000	64.396	-140.8826
1090.000000	64.511	-140.3916
1106.000000	64.631	-139.8939
1120.000000	64.735	-139.4741
1138.000000	64.869	-138.9453
1150.000000	64.959	-138.5936
1172.000000	65.129	-137.9441
1180.000000	65.194	-137.7088
1206.000000	65.426	-136.9930
1220.000000	65.563	-136.6714
1241.000000	65.781	-136.2898
1250.000000	65.877	-136.1557
1265.000000	66.038	-135.9560
1280.000000	66.199	-135.7701
1315.000000	66.536	-135.3270
1320.000000	66.577	-135.2605
1340.000000	66.709	-134.9874
1360.000000	66.794	-134.7059
1380.000000	66.844	-134.4196
1400.000000	66.883	-134.1334
1430.000000	66.967	-133.7171
1450.000000	67.054	-133.4563
1475.000000	67.196	-133.1566
1500.000000	67.363	-132.8860
1525.000000	67.544	-132.6350
1550.000000	67.730	-132.3929
1575.000000	67.917	-132.1547
1600.000000	68.104	-131.9224
1625.000000	68.293	-131.7031
1650.000000	68.483	-131.5063
1675.000000	68.675	-131.3407
1700.000000	68.869	-131.2122
1725.000000	69.063	-131.1239
1750.000000	69.258	-131.0765
1775.000000	69.453	-131.0695
1800.000000	69.647	-131.1030
1825.000000	69.844	-131.1804
1850.000000	70.043	-131.3086
1875.000000	70.243	-131.4965
1900.000000	70.442	-131.7507
1925.000000	70.638	-132.0736
1950.000000	70.832	-132.4644
1975.000000	71.022	-132.9204
2000.000000	71.209	-133.4384
2030.000000	71.427	-134.1379
2060.000000	71.641	-134.9211
2090.000000	71.847	-135.7904
2120.000000	72.046	-136.7498
2140.000000	72.173	-137.4402
2180.000000	72.413	-138.9383
2200.000000	72.525	-139.7421
2240.000000	72.732	-141.4456
2270.000000	72.870	-142.7947
2300.000000	72.994	-144.1933
2330.000000	73.103	-145.6318
2360.000000	73.195	-147.1007
2400.000000	73.291	-149.0899
2430.000000	73.343	-150.5908
2470.000000	73.389	-152.5798
2500.000000	73.404	-154.0465
2540.000000	73.402	-155.9473
2580.000000	73.374	-157.7656
2620.000000	73.326	-159.4840
2650.000000	73.277	-160.6992
2690.000000	73.197	-162.2135
2720.000000	73.127	-163.2661
2760.000000	73.025	-164.5551
2800.000000	72.914	-165.7112
2850.000000	72.768	-166.9698
2900.000000	72.616	-168.0269
2950.000000	72.462	-168.8929
3000.000000	72.306	-169.5807
3040.000000	72.183	-170.0124
3070.000000	72.092	-170.2718
3110.000000	71.975	-170.5374
3150.000000	71.864	-170.7179
3200.000000	71.734	-170.8341
3250.000000	71.615	-170.8402
3300.000000	71.506	-170.7476
3350.000000	71.405	-170.5669
3400.000000	71.310	-170.3089
3450.000000	71.222	-169.9841
3500.000000	71.142	-169.6007
3550.000000	71.071	-169.1670
3600.000000	71.013	-168.6920
3650.000000	70.973	-168.1846
3700.000000	70.954	-167.6532
3750.000000	70.959	-167.1057
3820.000000	71.001	-166.3262
3870.000000	71.052	-165.7707
3950.000000	71.161	-164.9068
4000.000000	71.240	-164.3958
4060.000000	71.339	-163.8266
4120.000000	71.437	-163.3158
4180.000000	71.533	-162.8705
4250.000000	71.643	-162.4407
4310.000000	71.744	-162.1581
4370.000000	71.858	-161.9662
4440.000000	72.016	-161.8762
4500.000000	72.179	-161.9327
4550.000000	72.331	-162.0864
4620.000000	72.565	-162.4817
4680.000000	72.774	-163.0021
4750.000000	73.019	-163.8368
4820.000000	73.254	-164.9277
4870.000000	73.412	-165.8664
4940.000000	73.613	-167.3998
5000.000000	73.762	-168.9066
5080.000000	73.920	-171.1583
5150.000000	74.013	-173.3113
5220.000000	74.059	-175.5793
5300.000000	74.050	-178.2337
5380.000000	73.975	179.1392
5450.000000	73.859	176.9373
5520.000000	73.703	174.8849
5600.000000	73.488	172.7797
5700.000000	73.181	170.5758
5800.000000	72.852	168.8864
5900.000000	72.525	167.7112
6000.000000	72.215	167.0167
6080.000000	71.981	166.7701
6150.000000	71.787	166.7511
6220.000000	71.603	166.8924
6300.000000	71.411	167.2236
6400.000000	71.208	167.8535
6500.000000	71.061	168.6596
6600.000000	70.987	169.5036
6700.000000	70.986	170.1878
6800.000000	71.044	170.6228
6900.000000	71.157	170.8378
7000.000000	71.336	170.7918
7100.000000	71.593	170.3122
7200.000000	71.929	169.1473
7300.000000	72.322	167.0387
7400.000000	72.726	163.7940
7500.000000	73.084	159.3499
7620.000000	73.358	152.6125
7750.000000	73.339	144.2151
7880.000000	72.900	135.7112
8000.000000	72.118	128.6985
8120.000000	71.039	123.1033
8250.000000	69.645	118.9336
8380.000000	68.147	116.6923
8500.000000	66.771	116.1207
8620.000000	65.464	116.7247
8750.000000	64.158	118.4189
8850.000000	63.237	120.2960
9000.000000	61.979	123.8221
9120.000000	61.065	127.1184
9250.000000	60.155	131.0548
9380.000000	59.322	135.2940
9500.000000	58.623	139.4267
9620.000000	57.991	143.7398
9750.000000	57.380	148.5948
9880.000000	56.840	153.6285
10000.000000	56.402	158.4331
10150.000000	55.930	164.6651
10300.000000	55.537	171.1848
10440.000000	55.240	177.5865
10600.000000	54.995	-174.6243
10750.000000	54.886	-166.7389
10900.000000	54.948	-158.1844
11060.000000	55.278	-148.3782
11200.000000	55.853	-139.5894
11380.000000	57.006	-129.1327
11500.000000	57.989	-123.4603
11720.000000	60.013	-116.7982
11800.000000	60.761	-115.5456
12060.000000	63.094	-114.6743
12200.000000	64.290	-115.6658
12410.000000	66.056	-118.8050
12500.000000	66.802	-120.8805
12650.000000	67.996	-125.5861
12800.000000	69.048	-132.0721
13150.000000	70.316	-153.4458
13200.000000	70.313	-156.8784
13400.000000	69.815	-170.1850
13600.000000	68.672	178.8096
13800.000000	67.168	171.2773
14000.000000	65.608	167.2447
14300.000000	63.653	166.1203
14500.000000	62.750	167.2197
14750.000000	62.048	169.1510
15000.000000	61.688	170.5057
15250.000000	61.479	170.3992
15500.000000	61.214	168.5044
15750.000000	60.743	165.1658
16000.000000	60.018	161.3039
16250.000000	59.078	158.0775
16500.000000	58.012	156.5141
16750.000000	56.944	157.2408
17000.000000	56.024	160.1924
17250.000000	55.344	164.5117
17500.000000	54.886	169.2640
17750.000000	54.595	174.1266
18000.000000	54.456	179.1119
18250.000000	54.475	-175.8482
18500.000000	54.635	-170.9776
18750.000000	54.906	-166.6051
19000.000000	55.234	-163.1180
19250.000000	55.539	-160.8554
19500.000000	55.735	-159.9017
19750.000000	55.790	-159.9378
20000.000000	55.772	-160.2684
