* Measurement data measured by REW V5.31.3
* Source: Microphone (USB Sound Device        ), MICROPHONE (Master Volume), L, volume: 0.700
* Format: 256k Log Swept Sine, 1 sweep at -12.0 dBFS with no timing reference
* Dated: 29-Jan-2025 17:34:44
* REW Settings:
*  C-weighting compensation: Off
*  Target level: 75.0 dB
* Note: 
* Measurement: Kefine Klean B R
* Smoothing: 1/12 octave
* Frequency Step: 1/48 octave
* Start Frequency: 20.300 Hz
*
* Freq(Hz)	SPL(dB)	Phase(degrees)
20.299999	72.955	-152.1040
20.600000	72.959	-152.6281
20.900000	72.962	-153.2853
21.200001	72.963	-153.9884
21.400000	72.964	-154.4651
21.799999	72.963	-155.4193
22.000000	72.962	-155.8922
22.400000	72.962	-156.8213
22.700001	72.962	-157.4993
23.000000	72.963	-158.1597
23.299999	72.965	-158.8032
23.600000	72.967	-159.4319
24.000000	72.968	-160.2507
24.299999	72.967	-160.8519
24.700001	72.963	-161.6368
25.000000	72.958	-162.2125
25.400000	72.951	-162.9629
25.799999	72.942	-163.6946
26.200001	72.933	-164.4104
26.500000	72.924	-164.9383
26.900000	72.911	-165.6311
27.200001	72.900	-166.1417
27.600000	72.884	-166.8089
28.000000	72.867	-167.4588
28.500000	72.846	-168.2473
29.000000	72.825	-169.0158
29.500000	72.805	-169.7737
30.000000	72.785	-170.5254
30.400000	72.768	-171.1203
30.700001	72.754	-171.5603
31.100000	72.734	-172.1361
31.500000	72.714	-172.6984
32.000000	72.690	-173.3833
32.500000	72.667	-174.0502
33.000000	72.643	-174.6999
33.500000	72.618	-175.3318
34.000000	72.592	-175.9463
34.500000	72.565	-176.5457
35.000000	72.537	-177.1328
35.500000	72.509	-177.7092
36.000000	72.480	-178.2753
36.500000	72.452	-178.8314
37.000000	72.425	-179.3776
37.500000	72.396	-179.9138
38.200001	72.354	179.3537
38.700001	72.321	178.8444
39.500000	72.267	178.0541
40.000000	72.234	177.5745
40.599998	72.194	177.0114
41.200001	72.157	176.4601
41.799999	72.122	175.9188
42.500000	72.081	175.3010
43.099998	72.043	174.7888
43.700001	72.004	174.2974
44.400002	71.959	173.7458
45.000000	71.922	173.2797
45.500000	71.890	172.8904
46.200001	71.845	172.3476
46.799999	71.805	171.8926
47.500000	71.760	171.3785
48.200001	71.720	170.8801
48.700001	71.695	170.5332
49.400002	71.660	170.0615
50.000000	71.626	169.6696
50.799999	71.570	169.1592
51.500000	71.516	168.7205
52.200001	71.461	168.2902
53.000000	71.402	167.8130
53.799999	71.346	167.3523
54.500000	71.298	166.9605
55.200001	71.251	166.5768
56.000000	71.198	166.1477
57.000000	71.131	165.6277
58.000000	71.065	165.1278
59.000000	70.999	164.6450
60.000000	70.933	164.1762
60.799999	70.881	163.8116
61.500000	70.835	163.5010
62.200001	70.791	163.1993
63.000000	70.740	162.8655
64.000000	70.677	162.4613
65.000000	70.615	162.0683
66.000000	70.553	161.6860
67.000000	70.491	161.3141
68.000000	70.429	160.9546
69.000000	70.366	160.6104
70.000000	70.302	160.2813
71.000000	70.238	159.9634
72.000000	70.176	159.6518
73.000000	70.116	159.3476
74.000000	70.057	159.0564
75.000000	69.998	158.7803
76.199997	69.927	158.4632
77.500000	69.849	158.1321
78.800003	69.772	157.8160
80.000000	69.701	157.5357
81.199997	69.631	157.2682
82.500000	69.556	156.9933
83.800003	69.483	156.7335
85.000000	69.418	156.5121
86.199997	69.353	156.3098
87.500000	69.281	156.1021
88.500000	69.227	155.9398
90.000000	69.147	155.6955
91.199997	69.086	155.5090
92.500000	69.020	155.3085
93.800003	68.952	155.1092
95.000000	68.889	154.9376
96.199997	68.826	154.7782
97.500000	68.756	154.6153
98.800003	68.687	154.4639
100.000000	68.625	154.3329
101.500000	68.553	154.1766
103.000000	68.484	154.0282
104.400002	68.421	153.8952
106.000000	68.348	153.7480
107.500000	68.278	153.6163
109.000000	68.206	153.4934
110.599998	68.130	153.3755
112.000000	68.064	153.2839
113.800003	67.980	153.1785
115.000000	67.924	153.1133
117.199997	67.823	153.0022
118.000000	67.786	152.9654
120.599998	67.669	152.8673
122.000000	67.608	152.8292
124.099998	67.518	152.7859
125.000000	67.481	152.7706
126.500000	67.418	152.7477
128.000000	67.355	152.7278
131.500000	67.209	152.6953
132.000000	67.188	152.6929
134.000000	67.105	152.6899
136.000000	67.023	152.6981
138.000000	66.940	152.7192
140.000000	66.857	152.7519
143.000000	66.734	152.8209
145.000000	66.654	152.8853
147.500000	66.555	152.9893
150.000000	66.456	153.1134
152.500000	66.360	153.2584
155.000000	66.264	153.4328
157.500000	66.169	153.6461
160.000000	66.076	153.9080
162.500000	65.992	154.2139
165.000000	65.919	154.5309
167.500000	65.853	154.8239
170.000000	65.788	155.0918
172.500000	65.717	155.3673
175.000000	65.639	155.6954
177.500000	65.557	156.1236
180.000000	65.477	156.6857
182.500000	65.408	157.3746
185.000000	65.358	158.1292
187.500000	65.337	158.8370
190.000000	65.344	159.3655
192.500000	65.373	159.6200
195.000000	65.406	159.5966
197.500000	65.431	159.3757
200.000000	65.438	159.0634
203.000000	65.428	158.6908
206.000000	65.403	158.3958
209.000000	65.371	158.2017
212.000000	65.330	158.1006
214.000000	65.298	158.0748
218.000000	65.221	158.0948
220.000000	65.178	158.1319
224.000000	65.087	158.2508
227.000000	65.016	158.3753
230.000000	64.943	158.5263
233.000000	64.871	158.6994
236.000000	64.802	158.8922
240.000000	64.716	159.1801
243.000000	64.654	159.4156
247.000000	64.576	159.7426
250.000000	64.522	159.9872
254.000000	64.455	160.3012
258.000000	64.393	160.6001
262.000000	64.329	160.8895
265.000000	64.281	161.1042
269.000000	64.217	161.3947
272.000000	64.168	161.6212
276.000000	64.104	161.9393
280.000000	64.040	162.2769
285.000000	63.962	162.7240
290.000000	63.886	163.1963
295.000000	63.810	163.6913
300.000000	63.736	164.2130
304.000000	63.678	164.6575
307.000000	63.636	165.0104
311.000000	63.584	165.5079
315.000000	63.538	166.0322
320.000000	63.490	166.7080
325.000000	63.455	167.3821
330.000000	63.434	168.0302
335.000000	63.426	168.6324
340.000000	63.430	169.1710
345.000000	63.441	169.6296
350.000000	63.446	170.0003
355.000000	63.441	170.2948
360.000000	63.426	170.5441
365.000000	63.404	170.7827
370.000000	63.378	171.0345
375.000000	63.347	171.3093
382.000000	63.301	171.7312
387.000000	63.269	172.0526
395.000000	63.223	172.5865
400.000000	63.195	172.9281
406.000000	63.161	173.3453
412.000000	63.125	173.7734
418.000000	63.089	174.2153
425.000000	63.048	174.7453
431.000000	63.015	175.2070
437.000000	62.983	175.6700
444.000000	62.949	176.2095
450.000000	62.923	176.6733
455.000000	62.903	177.0621
462.000000	62.879	177.6121
468.000000	62.859	178.0875
475.000000	62.837	178.6391
482.000000	62.815	179.1812
487.000000	62.800	179.5622
494.000000	62.777	-179.9087
500.000000	62.760	-179.4527
508.000000	62.739	-178.8348
515.000000	62.723	-178.2858
522.000000	62.707	-177.7322
530.000000	62.689	-177.0993
538.000000	62.673	-176.4675
545.000000	62.660	-175.9157
552.000000	62.650	-175.3669
560.000000	62.642	-174.7440
570.000000	62.634	-173.9699
580.000000	62.628	-173.1959
590.000000	62.622	-172.4184
600.000000	62.618	-171.6391
608.000000	62.615	-171.0181
615.000000	62.614	-170.4798
622.000000	62.615	-169.9476
630.000000	62.617	-169.3454
640.000000	62.621	-168.5945
650.000000	62.628	-167.8379
660.000000	62.639	-167.0724
670.000000	62.651	-166.3015
680.000000	62.665	-165.5298
690.000000	62.680	-164.7628
700.000000	62.697	-164.0048
710.000000	62.716	-163.2531
720.000000	62.736	-162.5018
730.000000	62.759	-161.7489
740.000000	62.783	-160.9924
750.000000	62.811	-160.2299
762.000000	62.845	-159.3075
775.000000	62.886	-158.3039
788.000000	62.932	-157.3011
800.000000	62.981	-156.3817
812.000000	63.035	-155.4730
825.000000	63.097	-154.5066
838.000000	63.163	-153.5629
850.000000	63.227	-152.7147
862.000000	63.295	-151.8902
875.000000	63.374	-151.0238
885.000000	63.436	-150.3724
900.000000	63.533	-149.4135
912.000000	63.611	-148.6641
925.000000	63.699	-147.8774
938.000000	63.788	-147.1203
950.000000	63.873	-146.4447
962.000000	63.959	-145.7887
975.000000	64.054	-145.1014
988.000000	64.152	-144.4426
1000.000000	64.245	-143.8645
1015.000000	64.361	-143.1866
1030.000000	64.478	-142.5562
1044.000000	64.589	-142.0049
1060.000000	64.715	-141.4124
1075.000000	64.832	-140.8914
1090.000000	64.946	-140.4010
1106.000000	65.065	-139.9041
1120.000000	65.167	-139.4840
1138.000000	65.299	-138.9561
1150.000000	65.388	-138.6077
1172.000000	65.556	-137.9659
1180.000000	65.621	-137.7321
1206.000000	65.849	-137.0104
1220.000000	65.984	-136.6792
1241.000000	66.199	-136.2806
1250.000000	66.294	-136.1397
1265.000000	66.454	-135.9313
1280.000000	66.613	-135.7408
1315.000000	66.949	-135.2951
1320.000000	66.989	-135.2284
1340.000000	67.121	-134.9544
1360.000000	67.205	-134.6708
1380.000000	67.254	-134.3807
1400.000000	67.291	-134.0890
1430.000000	67.374	-133.6644
1450.000000	67.460	-133.4009
1475.000000	67.601	-133.0988
1500.000000	67.768	-132.8238
1525.000000	67.947	-132.5683
1550.000000	68.133	-132.3236
1575.000000	68.320	-132.0847
1600.000000	68.507	-131.8523
1625.000000	68.695	-131.6325
1650.000000	68.884	-131.4348
1675.000000	69.075	-131.2696
1700.000000	69.268	-131.1433
1725.000000	69.463	-131.0590
1750.000000	69.658	-131.0173
1775.000000	69.853	-131.0172
1800.000000	70.047	-131.0592
1825.000000	70.243	-131.1476
1850.000000	70.441	-131.2888
1875.000000	70.639	-131.4899
1900.000000	70.836	-131.7567
1925.000000	71.030	-132.0918
1950.000000	71.220	-132.4948
1975.000000	71.408	-132.9622
2000.000000	71.592	-133.4906
2030.000000	71.807	-134.2022
2060.000000	72.016	-134.9968
2090.000000	72.218	-135.8755
2120.000000	72.412	-136.8410
2140.000000	72.537	-137.5338
2180.000000	72.771	-139.0354
2200.000000	72.880	-139.8405
2240.000000	73.082	-141.5461
2270.000000	73.216	-142.8965
2300.000000	73.336	-144.2960
2330.000000	73.440	-145.7338
2360.000000	73.527	-147.2010
2400.000000	73.618	-149.1866
2430.000000	73.666	-150.6846
2470.000000	73.707	-152.6706
2500.000000	73.719	-154.1351
2540.000000	73.712	-156.0321
2580.000000	73.681	-157.8443
2620.000000	73.629	-159.5547
2650.000000	73.578	-160.7639
2690.000000	73.495	-162.2713
2720.000000	73.424	-163.3199
2760.000000	73.319	-164.6042
2800.000000	73.206	-165.7553
2850.000000	73.058	-167.0079
2900.000000	72.905	-168.0590
2950.000000	72.749	-168.9198
3000.000000	72.593	-169.6030
3040.000000	72.468	-170.0308
3070.000000	72.376	-170.2870
3110.000000	72.257	-170.5481
3150.000000	72.144	-170.7246
3200.000000	72.012	-170.8371
3250.000000	71.892	-170.8403
3300.000000	71.781	-170.7450
3350.000000	71.679	-170.5622
3400.000000	71.583	-170.3027
3450.000000	71.494	-169.9760
3500.000000	71.413	-169.5908
3550.000000	71.340	-169.1565
3600.000000	71.282	-168.6817
3650.000000	71.241	-168.1746
3700.000000	71.221	-167.6430
3750.000000	71.225	-167.0955
3820.000000	71.266	-166.3171
3870.000000	71.316	-165.7623
3950.000000	71.423	-164.8990
4000.000000	71.499	-164.3887
4060.000000	71.596	-163.8190
4120.000000	71.692	-163.3041
4180.000000	71.786	-162.8498
4250.000000	71.895	-162.4039
4310.000000	71.994	-162.1047
4370.000000	72.107	-161.8974
4440.000000	72.265	-161.7939
4500.000000	72.428	-161.8423
4550.000000	72.580	-161.9909
4620.000000	72.814	-162.3813
4680.000000	73.024	-162.9000
4750.000000	73.270	-163.7357
4820.000000	73.507	-164.8310
4870.000000	73.666	-165.7743
4940.000000	73.868	-167.3160
5000.000000	74.017	-168.8319
5080.000000	74.176	-171.0995
5150.000000	74.269	-173.2693
5220.000000	74.316	-175.5563
5300.000000	74.309	-178.2335
5380.000000	74.237	179.1162
5450.000000	74.122	176.8936
5520.000000	73.968	174.8199
5600.000000	73.756	172.6894
5700.000000	73.453	170.4535
5800.000000	73.127	168.7313
5900.000000	72.805	167.5203
6000.000000	72.502	166.7831
6080.000000	72.275	166.4951
6150.000000	72.087	166.4330
6220.000000	71.910	166.5231
6300.000000	71.724	166.7833
6400.000000	71.528	167.3033
6500.000000	71.386	167.9818
6600.000000	71.313	168.6987
6700.000000	71.311	169.2714
6800.000000	71.370	169.6037
6900.000000	71.485	169.7075
7000.000000	71.669	169.5190
7100.000000	71.931	168.8376
7200.000000	72.268	167.3953
7300.000000	72.648	164.9428
7400.000000	73.023	161.3221
7500.000000	73.333	156.5230
7620.000000	73.526	149.4749
7750.000000	73.406	140.9780
7880.000000	72.867	132.6578
8000.000000	72.011	126.0165
8120.000000	70.880	120.8950
8250.000000	69.457	117.2546
8380.000000	67.952	115.4885
8500.000000	66.584	115.2791
8620.000000	65.292	116.1699
8750.000000	64.008	118.1014
8850.000000	63.105	120.1193
9000.000000	61.872	123.8044
9120.000000	60.976	127.1955
9250.000000	60.083	131.2142
9380.000000	59.265	135.5227
9500.000000	58.578	139.7119
9620.000000	57.958	144.0755
9750.000000	57.360	148.9792
9880.000000	56.833	154.0575
10000.000000	56.405	158.9004
10150.000000	55.946	165.1773
10300.000000	55.564	171.7404
10440.000000	55.277	178.1844
10600.000000	55.043	-173.9669
10750.000000	54.949	-166.0145
10900.000000	55.027	-157.3894
11060.000000	55.381	-147.5158
11200.000000	55.979	-138.6920
11380.000000	57.165	-128.2512
11500.000000	58.168	-122.6304
11720.000000	60.219	-116.1057
11800.000000	60.976	-114.9046
12060.000000	63.336	-114.1914
12200.000000	64.547	-115.2725
12410.000000	66.338	-118.5850
12500.000000	67.094	-120.7590
12650.000000	68.298	-125.6663
12800.000000	69.351	-132.3923
13150.000000	70.573	-154.2901
13200.000000	70.558	-157.7695
13400.000000	70.012	-171.1499
13600.000000	68.825	177.9356
13800.000000	67.294	170.5829
14000.000000	65.728	166.7330
14300.000000	63.792	165.7595
14500.000000	62.910	166.8396
14750.000000	62.233	168.6205
15000.000000	61.883	169.7255
15250.000000	61.664	169.3349
15500.000000	61.364	167.2025
15750.000000	60.839	163.7532
16000.000000	60.052	159.9539
16250.000000	59.055	156.9503
16500.000000	57.948	155.7108
16750.000000	56.858	156.7996
17000.000000	55.929	160.1254
17250.000000	55.253	164.8183
17500.000000	54.810	169.9037
17750.000000	54.539	175.0350
18000.000000	54.420	-179.7605
18250.000000	54.456	-174.5214
18500.000000	54.631	-169.4456
18750.000000	54.914	-164.8463
19000.000000	55.254	-161.1017
19250.000000	55.573	-158.5535
19500.000000	55.783	-157.3063
19750.000000	55.852	-157.0810
20000.000000	55.843	-157.2519
