* Measurement data measured by REW V5.31.3
* Source: Microphone (USB Sound Device        ), MICROPHONE (Master Volume), L, volume: 0.700
* Format: 256k Log Swept Sine, 1 sweep at -12.0 dBFS with no timing reference
* Dated: 29-Jan-2025 17:42:34
* REW Settings:
*  C-weighting compensation: Off
*  Target level: 75.0 dB
* Note: 
* Measurement: Delci AE Gold L
* Smoothing: 1/12 octave
* Frequency Step: 1/48 octave
* Start Frequency: 20.300 Hz
*
* Freq(Hz)	SPL(dB)	Phase(degrees)
20.299999	72.319	-162.2956
20.600000	72.322	-162.7317
20.900000	72.324	-163.2843
21.200001	72.324	-163.8835
21.400000	72.322	-164.2940
21.799999	72.317	-165.1215
22.000000	72.314	-165.5319
22.400000	72.308	-166.3327
22.700001	72.304	-166.9097
23.000000	72.303	-167.4655
23.299999	72.303	-168.0029
23.600000	72.303	-168.5262
24.000000	72.303	-169.2087
24.299999	72.300	-169.7114
24.700001	72.293	-170.3695
25.000000	72.287	-170.8530
25.400000	72.277	-171.4837
25.799999	72.266	-172.0993
26.200001	72.255	-172.7010
26.500000	72.246	-173.1434
26.900000	72.233	-173.7210
27.200001	72.223	-174.1447
27.600000	72.209	-174.6978
28.000000	72.196	-175.2401
28.500000	72.178	-175.9077
29.000000	72.159	-176.5666
29.500000	72.139	-177.2146
30.000000	72.118	-177.8466
30.400000	72.100	-178.3386
30.700001	72.086	-178.6997
31.100000	72.068	-179.1719
31.500000	72.049	-179.6350
32.000000	72.026	179.7972
32.500000	72.004	179.2417
33.000000	71.981	178.6994
33.500000	71.958	178.1703
34.000000	71.935	177.6529
34.500000	71.912	177.1445
35.000000	71.888	176.6436
35.500000	71.862	176.1508
36.000000	71.837	175.6682
36.500000	71.811	175.1980
37.000000	71.786	174.7401
37.500000	71.760	174.2930
38.200001	71.721	173.6809
38.700001	71.692	173.2525
39.500000	71.643	172.5814
40.000000	71.613	172.1701
40.599998	71.578	171.6851
41.200001	71.544	171.2109
41.799999	71.512	170.7483
42.500000	71.476	170.2217
43.099998	71.443	169.7805
43.700001	71.410	169.3494
44.400002	71.370	168.8597
45.000000	71.335	168.4515
45.500000	71.305	168.1198
46.200001	71.262	167.6675
46.799999	71.225	167.2875
47.500000	71.184	166.8481
48.200001	71.148	166.4146
48.700001	71.125	166.1125
49.400002	71.094	165.7037
50.000000	71.064	165.3652
50.799999	71.015	164.9248
51.500000	70.964	164.5460
52.200001	70.913	164.1723
53.000000	70.858	163.7530
53.799999	70.806	163.3436
54.500000	70.762	162.9949
55.200001	70.718	162.6565
56.000000	70.669	162.2823
57.000000	70.607	161.8280
58.000000	70.546	161.3835
59.000000	70.484	160.9517
60.000000	70.423	160.5354
60.799999	70.374	160.2130
61.500000	70.332	159.9380
62.200001	70.290	159.6695
63.000000	70.243	159.3702
64.000000	70.185	159.0067
65.000000	70.126	158.6546
66.000000	70.068	158.3135
67.000000	70.011	157.9814
68.000000	69.953	157.6591
69.000000	69.892	157.3480
70.000000	69.829	157.0469
71.000000	69.767	156.7541
72.000000	69.708	156.4693
73.000000	69.652	156.1940
74.000000	69.597	155.9290
75.000000	69.541	155.6736
76.199997	69.473	155.3790
77.500000	69.399	155.0737
78.800003	69.326	154.7814
80.000000	69.257	154.5216
81.199997	69.189	154.2722
82.500000	69.117	154.0173
83.800003	69.045	153.7793
85.000000	68.980	153.5707
86.199997	68.916	153.3704
87.500000	68.845	153.1624
88.500000	68.792	153.0085
90.000000	68.714	152.7867
91.199997	68.652	152.6151
92.500000	68.587	152.4330
93.800003	68.521	152.2558
95.000000	68.460	152.0967
96.199997	68.398	151.9423
97.500000	68.330	151.7819
98.800003	68.261	151.6300
100.000000	68.198	151.4985
101.500000	68.124	151.3475
103.000000	68.053	151.2121
104.400002	67.988	151.0975
106.000000	67.913	150.9743
107.500000	67.843	150.8635
109.000000	67.774	150.7580
110.599998	67.700	150.6544
112.000000	67.636	150.5724
113.800003	67.555	150.4753
115.000000	67.501	150.4134
117.199997	67.402	150.3037
118.000000	67.367	150.2654
120.599998	67.253	150.1547
122.000000	67.192	150.1047
124.099998	67.103	150.0396
125.000000	67.065	150.0153
126.500000	67.001	149.9810
128.000000	66.938	149.9548
131.500000	66.790	149.9180
132.000000	66.769	149.9147
134.000000	66.687	149.9055
136.000000	66.605	149.9056
138.000000	66.523	149.9182
140.000000	66.441	149.9410
143.000000	66.321	149.9812
145.000000	66.243	150.0141
147.500000	66.147	150.0679
150.000000	66.052	150.1342
152.500000	65.961	150.2076
155.000000	65.871	150.2869
157.500000	65.779	150.3745
160.000000	65.688	150.4732
162.500000	65.599	150.5818
165.000000	65.513	150.6965
167.500000	65.426	150.8165
170.000000	65.339	150.9475
172.500000	65.250	151.0955
175.000000	65.159	151.2616
177.500000	65.064	151.4459
180.000000	64.962	151.6507
182.500000	64.851	151.8800
185.000000	64.726	152.1406
187.500000	64.590	152.4393
190.000000	64.446	152.7821
192.500000	64.305	153.1761
195.000000	64.173	153.6344
197.500000	64.057	154.1726
200.000000	63.956	154.8061
203.000000	63.859	155.7062
206.000000	63.790	156.7615
209.000000	63.753	157.9686
212.000000	63.749	159.3032
214.000000	63.768	160.2280
218.000000	63.865	161.9976
220.000000	63.943	162.7551
224.000000	64.143	163.8134
227.000000	64.303	164.0969
230.000000	64.445	163.9508
233.000000	64.549	163.4913
236.000000	64.608	162.8673
240.000000	64.624	162.0044
243.000000	64.598	161.4398
247.000000	64.530	160.8530
250.000000	64.465	160.5336
254.000000	64.371	160.2460
258.000000	64.272	160.0928
262.000000	64.172	160.0538
265.000000	64.099	160.0886
269.000000	64.004	160.2029
272.000000	63.936	160.3268
276.000000	63.850	160.5287
280.000000	63.767	160.7640
285.000000	63.668	161.0948
290.000000	63.573	161.4566
295.000000	63.480	161.8444
300.000000	63.388	162.2557
304.000000	63.315	162.6080
307.000000	63.261	162.8879
311.000000	63.191	163.2835
315.000000	63.122	163.7037
320.000000	63.040	164.2545
325.000000	62.962	164.8242
330.000000	62.887	165.4217
335.000000	62.820	166.0667
340.000000	62.763	166.7644
345.000000	62.715	167.5086
350.000000	62.674	168.2921
355.000000	62.642	169.0953
360.000000	62.626	169.8830
365.000000	62.630	170.6129
370.000000	62.648	171.2427
375.000000	62.672	171.7440
382.000000	62.698	172.2406
387.000000	62.704	172.4957
395.000000	62.689	172.8547
400.000000	62.668	173.1016
406.000000	62.634	173.4460
412.000000	62.594	173.8463
418.000000	62.552	174.3001
425.000000	62.506	174.8902
431.000000	62.469	175.4394
437.000000	62.435	176.0185
444.000000	62.402	176.7168
450.000000	62.381	177.3254
455.000000	62.371	177.8359
462.000000	62.365	178.5487
468.000000	62.366	179.1474
475.000000	62.372	179.8165
482.000000	62.381	-179.5587
487.000000	62.387	-179.1399
494.000000	62.394	-178.5832
500.000000	62.400	-178.1248
508.000000	62.410	-177.5311
515.000000	62.420	-177.0242
522.000000	62.428	-176.5271
530.000000	62.435	-175.9696
538.000000	62.441	-175.4199
545.000000	62.446	-174.9421
552.000000	62.453	-174.4663
560.000000	62.462	-173.9264
570.000000	62.477	-173.2621
580.000000	62.492	-172.6154
590.000000	62.506	-171.9855
600.000000	62.517	-171.3673
608.000000	62.523	-170.8794
615.000000	62.528	-170.4567
622.000000	62.533	-170.0361
630.000000	62.538	-169.5526
640.000000	62.544	-168.9366
650.000000	62.551	-168.3065
660.000000	62.561	-167.6651
670.000000	62.573	-167.0163
680.000000	62.585	-166.3632
690.000000	62.597	-165.7058
700.000000	62.611	-165.0445
710.000000	62.626	-164.3816
720.000000	62.644	-163.7192
730.000000	62.663	-163.0589
740.000000	62.684	-162.3994
750.000000	62.707	-161.7373
762.000000	62.734	-160.9366
775.000000	62.765	-160.0615
788.000000	62.798	-159.1785
800.000000	62.832	-158.3553
812.000000	62.869	-157.5234
825.000000	62.912	-156.6133
838.000000	62.960	-155.7004
850.000000	63.009	-154.8680
862.000000	63.065	-154.0562
875.000000	63.131	-153.2007
885.000000	63.184	-152.5551
900.000000	63.266	-151.5983
912.000000	63.332	-150.8421
925.000000	63.407	-150.0370
938.000000	63.486	-149.2517
950.000000	63.563	-148.5473
962.000000	63.643	-147.8646
975.000000	63.734	-147.1525
988.000000	63.829	-146.4733
1000.000000	63.919	-145.8793
1015.000000	64.032	-145.1834
1030.000000	64.147	-144.5376
1044.000000	64.255	-143.9764
1060.000000	64.379	-143.3788
1075.000000	64.494	-142.8565
1090.000000	64.608	-142.3687
1106.000000	64.728	-141.8834
1120.000000	64.834	-141.4842
1138.000000	64.969	-140.9994
1150.000000	65.059	-140.6916
1172.000000	65.226	-140.1582
1180.000000	65.288	-139.9747
1206.000000	65.497	-139.4191
1220.000000	65.616	-139.1460
1241.000000	65.805	-138.7708
1250.000000	65.891	-138.6220
1265.000000	66.037	-138.3871
1280.000000	66.186	-138.1646
1315.000000	66.508	-137.6657
1320.000000	66.547	-137.5940
1340.000000	66.672	-137.3025
1360.000000	66.750	-137.0046
1380.000000	66.794	-136.7066
1400.000000	66.827	-136.4145
1430.000000	66.902	-135.9965
1450.000000	66.982	-135.7370
1475.000000	67.116	-135.4396
1500.000000	67.275	-135.1741
1525.000000	67.449	-134.9348
1550.000000	67.630	-134.7151
1575.000000	67.811	-134.5122
1600.000000	67.990	-134.3248
1625.000000	68.168	-134.1554
1650.000000	68.346	-134.0098
1675.000000	68.525	-133.8924
1700.000000	68.705	-133.8056
1725.000000	68.885	-133.7530
1750.000000	69.065	-133.7374
1775.000000	69.244	-133.7607
1800.000000	69.423	-133.8249
1825.000000	69.603	-133.9305
1850.000000	69.784	-134.0792
1875.000000	69.966	-134.2744
1900.000000	70.147	-134.5214
1925.000000	70.328	-134.8270
1950.000000	70.509	-135.1993
1975.000000	70.688	-135.6455
2000.000000	70.864	-136.1700
2030.000000	71.071	-136.9053
2060.000000	71.269	-137.7525
2090.000000	71.456	-138.7014
2120.000000	71.631	-139.7400
2140.000000	71.740	-140.4766
2180.000000	71.940	-142.0446
2200.000000	72.030	-142.8704
2240.000000	72.191	-144.5885
2270.000000	72.293	-145.9221
2300.000000	72.381	-147.2825
2330.000000	72.452	-148.6603
2360.000000	72.507	-150.0461
2400.000000	72.554	-151.8898
2430.000000	72.571	-153.2560
2470.000000	72.570	-155.0342
2500.000000	72.553	-156.3221
2540.000000	72.510	-157.9612
2580.000000	72.445	-159.4953
2620.000000	72.362	-160.9122
2650.000000	72.290	-161.8934
2690.000000	72.183	-163.0887
2720.000000	72.096	-163.8985
2760.000000	71.973	-164.8626
2800.000000	71.846	-165.6966
2850.000000	71.683	-166.5634
2900.000000	71.519	-167.2462
2950.000000	71.355	-167.7565
3000.000000	71.193	-168.1074
3040.000000	71.065	-168.2811
3070.000000	70.972	-168.3534
3110.000000	70.852	-168.3784
3150.000000	70.739	-168.3282
3200.000000	70.608	-168.1691
3250.000000	70.488	-167.9135
3300.000000	70.378	-167.5713
3350.000000	70.276	-167.1532
3400.000000	70.181	-166.6694
3450.000000	70.092	-166.1292
3500.000000	70.010	-165.5401
3550.000000	69.937	-164.9093
3600.000000	69.876	-164.2434
3650.000000	69.831	-163.5492
3700.000000	69.807	-162.8337
3750.000000	69.805	-162.1024
3820.000000	69.835	-161.0621
3870.000000	69.875	-160.3148
3950.000000	69.965	-159.1282
4000.000000	70.032	-158.4019
4060.000000	70.115	-157.5565
4120.000000	70.197	-156.7480
4180.000000	70.278	-155.9854
4250.000000	70.372	-155.1665
4310.000000	70.459	-154.5390
4370.000000	70.558	-153.9937
4440.000000	70.699	-153.4745
4500.000000	70.845	-153.1384
4550.000000	70.985	-152.9414
4620.000000	71.200	-152.8047
4680.000000	71.396	-152.8254
4750.000000	71.629	-153.0164
4820.000000	71.859	-153.3951
4870.000000	72.019	-153.7859
4940.000000	72.232	-154.5058
5000.000000	72.402	-155.2819
5080.000000	72.606	-156.5351
5150.000000	72.757	-157.8217
5220.000000	72.878	-159.2646
5300.000000	72.975	-161.0679
5380.000000	73.022	-162.9832
5450.000000	73.021	-164.7003
5520.000000	72.983	-166.4055
5600.000000	72.902	-168.2774
5700.000000	72.750	-170.4058
5800.000000	72.558	-172.2059
5900.000000	72.345	-173.6148
6000.000000	72.124	-174.6062
6080.000000	71.944	-175.1023
6150.000000	71.787	-175.3320
6220.000000	71.631	-175.3860
6300.000000	71.462	-175.2556
6400.000000	71.272	-174.8491
6500.000000	71.120	-174.2316
6600.000000	71.014	-173.4681
6700.000000	70.963	-172.6266
6800.000000	70.974	-171.7776
6900.000000	71.051	-170.9974
7000.000000	71.197	-170.3746
7100.000000	71.419	-170.0215
7200.000000	71.723	-170.0805
7300.000000	72.105	-170.7217
7400.000000	72.553	-172.1340
7500.000000	73.041	-174.5045
7620.000000	73.610	-178.8050
7750.000000	74.074	174.7318
7880.000000	74.220	166.7952
8000.000000	73.984	158.8954
8120.000000	73.382	151.2961
8250.000000	72.373	144.2483
8380.000000	71.107	138.9873
8500.000000	69.821	135.8792
8620.000000	68.510	134.3735
8750.000000	67.131	134.3388
8850.000000	66.123	135.2891
9000.000000	64.718	138.0868
9120.000000	63.694	141.3881
9250.000000	62.701	145.9364
9380.000000	61.862	151.3688
9500.000000	61.262	156.9380
9620.000000	60.858	162.6774
9750.000000	60.637	168.6040
9880.000000	60.598	173.8177
10000.000000	60.668	177.8528
10150.000000	60.828	-178.0527
10300.000000	61.018	-174.7431
10440.000000	61.205	-172.1242
10600.000000	61.434	-169.5114
10750.000000	61.681	-167.3763
10900.000000	61.975	-165.5784
11060.000000	62.343	-164.1237
11200.000000	62.703	-163.3390
11380.000000	63.195	-163.1360
11500.000000	63.527	-163.5679
11720.000000	64.105	-165.6076
11800.000000	64.292	-166.7412
12060.000000	64.743	-171.6578
12200.000000	64.852	-174.8858
12410.000000	64.809	179.9317
12500.000000	64.711	177.7103
12650.000000	64.447	174.1674
12800.000000	64.061	170.9649
13150.000000	62.725	165.4176
13200.000000	62.492	164.8701
13400.000000	61.490	163.2862
13600.000000	60.449	162.6055
13800.000000	59.474	162.7096
14000.000000	58.632	163.4527
14300.000000	57.684	165.2955
14500.000000	57.261	166.5544
14750.000000	56.907	167.5139
15000.000000	56.626	167.2118
15250.000000	56.238	165.4543
15500.000000	55.567	162.7614
15750.000000	54.555	160.1792
16000.000000	53.296	158.7306
16250.000000	51.965	159.0618
16500.000000	50.730	161.3844
16750.000000	49.704	165.5457
17000.000000	48.964	171.0447
17250.000000	48.545	176.9403
17500.000000	48.390	-178.0656
17750.000000	48.316	-174.8454
18000.000000	48.106	-172.6315
18250.000000	47.787	-169.3720
18500.000000	47.630	-164.6868
18750.000000	47.718	-160.7419
19000.000000	47.838	-159.0942
19250.000000	47.762	-159.5172
19500.000000	47.399	-161.0519
19750.000000	46.843	-162.7172
20000.000000	46.414	-163.7216
