* Measurement data measured by REW V5.31.3
* Source: Microphone (4- USB Audio Device), MICROPHONE (Master Volume), R, volume: 0.250
* Format: 256k Log Swept Sine, 1 sweep at -12.0 dBFS with no timing reference
* Dated: 04-Sep-2024 09:21:57
* REW Settings:
*  C-weighting compensation: Off
*  Target level: 75.0 dB
* Note: 
* Measurement: KZ Carol L
* Smoothing: 1/12 octave
* Frequency Step: 1/48 octave
* Start Frequency: 20.300 Hz
*
* Freq(Hz)	SPL(dB)	Phase(degrees)
20.299999	87.276	-3.9249
20.600000	87.412	-5.8222
20.900000	87.586	-8.1511
21.200001	87.772	-10.5779
21.400000	87.896	-12.1842
21.799999	88.133	-15.3128
22.000000	88.243	-16.8278
22.400000	88.444	-19.7651
22.700001	88.579	-21.9064
23.000000	88.703	-24.0229
23.299999	88.819	-26.1435
23.600000	88.928	-28.2922
24.000000	89.065	-31.2209
24.299999	89.164	-33.4598
24.700001	89.292	-36.4690
25.000000	89.390	-38.7154
25.400000	89.525	-41.6616
25.799999	89.669	-44.5318
26.200001	89.822	-47.3240
26.500000	89.941	-49.3734
26.900000	90.100	-52.0591
27.200001	90.219	-54.0490
27.600000	90.372	-56.6881
28.000000	90.517	-59.3334
28.500000	90.685	-62.6739
29.000000	90.835	-66.0477
29.500000	90.969	-69.4098
30.000000	91.097	-72.7034
30.400000	91.198	-75.2688
30.700001	91.276	-77.1543
31.100000	91.381	-79.6290
31.500000	91.483	-82.0743
32.000000	91.605	-85.1072
32.500000	91.719	-88.1233
33.000000	91.832	-91.1291
33.500000	91.949	-94.1309
34.000000	92.074	-97.1302
34.500000	92.203	-100.1214
35.000000	92.334	-103.1009
35.500000	92.463	-106.0766
36.000000	92.586	-109.0654
36.500000	92.701	-112.0776
37.000000	92.806	-115.1068
37.500000	92.902	-118.1368
38.200001	93.024	-122.3687
38.700001	93.105	-125.4009
39.500000	93.217	-130.3165
40.000000	93.277	-133.4376
40.599998	93.342	-137.2261
41.200001	93.404	-141.0540
41.799999	93.462	-144.9094
42.500000	93.523	-149.4185
43.099998	93.571	-153.2886
43.700001	93.619	-157.1889
44.400002	93.678	-161.8171
45.000000	93.731	-165.8544
45.500000	93.779	-169.2504
46.200001	93.852	-174.0155
46.799999	93.917	-178.0755
47.500000	93.991	177.2670
48.200001	94.058	172.7312
48.700001	94.103	169.5552
49.400002	94.161	165.1449
50.000000	94.203	161.3564
50.799999	94.242	156.2776
51.500000	94.267	151.8195
52.200001	94.294	147.3468
53.000000	94.337	142.2256
53.799999	94.392	137.1479
54.500000	94.444	132.7780
55.200001	94.490	128.4569
56.000000	94.528	123.5129
57.000000	94.561	117.2575
58.000000	94.605	110.9685
59.000000	94.666	104.7557
60.000000	94.726	98.6216
60.799999	94.762	93.7264
61.500000	94.788	89.4433
62.200001	94.812	85.1678
63.000000	94.838	80.2970
64.000000	94.866	74.2254
65.000000	94.890	68.1516
66.000000	94.915	62.0622
67.000000	94.940	55.9597
68.000000	94.960	49.8626
69.000000	94.975	43.8078
70.000000	94.991	37.8140
71.000000	95.011	31.8742
72.000000	95.040	25.9574
73.000000	95.078	20.0145
74.000000	95.110	14.0247
75.000000	95.124	8.0063
76.199997	95.125	0.7879
77.500000	95.129	-6.9704
78.800003	95.140	-14.6190
80.000000	95.145	-21.5933
81.199997	95.148	-28.5447
82.500000	95.153	-36.0949
83.800003	95.159	-43.6487
85.000000	95.157	-50.5831
86.199997	95.146	-57.5069
87.500000	95.133	-65.0521
88.500000	95.130	-70.8938
90.000000	95.145	-79.6962
91.199997	95.165	-86.7370
92.500000	95.182	-94.2917
93.800003	95.188	-101.7228
95.000000	95.183	-108.5147
96.199997	95.169	-115.3071
97.500000	95.144	-122.7032
98.800003	95.120	-130.1489
100.000000	95.105	-137.0436
101.500000	95.092	-145.6438
103.000000	95.075	-154.2075
104.400002	95.056	-162.1688
106.000000	95.033	-171.2443
107.500000	95.011	-179.7717
109.000000	94.981	171.6442
110.599998	94.934	162.4161
112.000000	94.883	154.3075
113.800003	94.816	143.8972
115.000000	94.774	136.9750
117.199997	94.705	124.3274
118.000000	94.683	119.7530
120.599998	94.611	105.0187
122.000000	94.565	97.1476
124.099998	94.475	85.3351
125.000000	94.432	80.2518
126.500000	94.364	71.7648
128.000000	94.302	63.3081
131.500000	94.141	43.7227
132.000000	94.115	40.9132
134.000000	93.999	29.5959
136.000000	93.870	18.2123
138.000000	93.730	6.8386
140.000000	93.578	-4.5051
143.000000	93.322	-21.4200
145.000000	93.131	-32.6382
147.500000	92.872	-46.6352
150.000000	92.596	-60.5422
152.500000	92.301	-74.2249
155.000000	91.968	-87.6292
157.500000	91.599	-100.8670
160.000000	91.206	-113.8577
162.500000	90.790	-126.4611
165.000000	90.359	-138.7280
167.500000	89.928	-150.6357
170.000000	89.515	-162.0001
172.500000	89.137	-172.8521
175.000000	88.820	176.6733
177.500000	88.585	166.5410
180.000000	88.447	156.6729
182.500000	88.421	146.8225
185.000000	88.502	136.6870
187.500000	88.654	126.1001
190.000000	88.833	115.0013
192.500000	89.013	103.4441
195.000000	89.186	91.5940
197.500000	89.350	79.6086
200.000000	89.513	67.5916
203.000000	89.705	53.2343
206.000000	89.892	39.0269
209.000000	90.083	25.0806
212.000000	90.286	11.4700
214.000000	90.431	2.6428
218.000000	90.716	-14.2642
220.000000	90.836	-22.3553
224.000000	90.995	-38.0507
227.000000	91.039	-49.7192
230.000000	91.036	-61.5582
233.000000	91.013	-73.5189
236.000000	90.985	-85.3906
240.000000	90.933	-100.9338
243.000000	90.877	-112.5143
247.000000	90.784	-127.9236
250.000000	90.702	-139.3356
254.000000	90.572	-154.3196
258.000000	90.422	-169.1116
262.000000	90.259	176.2473
265.000000	90.127	165.3984
269.000000	89.941	151.0922
272.000000	89.797	140.4714
276.000000	89.604	126.5659
280.000000	89.413	113.0236
285.000000	89.188	96.5403
290.000000	89.010	80.4204
295.000000	88.912	64.4985
300.000000	88.902	48.5536
304.000000	88.935	35.6954
307.000000	88.966	25.9742
311.000000	89.006	12.9275
315.000000	89.034	-0.1505
320.000000	89.053	-16.4979
325.000000	89.058	-32.8704
330.000000	89.054	-49.2173
335.000000	89.049	-65.4607
340.000000	89.046	-81.5785
345.000000	89.038	-97.5947
350.000000	89.033	-113.5002
355.000000	89.039	-129.2581
360.000000	89.048	-144.9268
365.000000	89.059	-160.5906
370.000000	89.076	-176.2490
375.000000	89.103	168.1565
382.000000	89.151	146.4543
387.000000	89.191	130.9916
395.000000	89.263	106.3231
400.000000	89.308	90.9822
406.000000	89.354	72.6149
412.000000	89.399	54.3120
418.000000	89.442	36.1021
425.000000	89.486	14.8813
431.000000	89.511	-3.2644
437.000000	89.522	-21.2822
444.000000	89.514	-42.1682
450.000000	89.497	-60.0234
455.000000	89.484	-74.8589
462.000000	89.474	-95.4492
468.000000	89.474	-112.9014
475.000000	89.472	-133.1558
482.000000	89.462	-153.3293
487.000000	89.453	-167.6763
494.000000	89.438	172.3533
500.000000	89.422	155.3889
508.000000	89.390	132.9487
515.000000	89.359	113.3848
522.000000	89.329	93.9761
530.000000	89.286	72.0415
538.000000	89.229	50.2209
545.000000	89.176	31.1516
552.000000	89.130	12.2256
560.000000	89.084	-9.1250
570.000000	89.031	-35.4653
580.000000	88.977	-61.4470
590.000000	88.923	-87.1228
600.000000	88.871	-112.5417
608.000000	88.826	-132.7080
615.000000	88.778	-150.2070
622.000000	88.722	-167.5637
630.000000	88.657	172.7297
640.000000	88.595	148.2329
650.000000	88.563	123.9358
660.000000	88.548	99.9197
670.000000	88.523	76.1406
680.000000	88.474	52.4900
690.000000	88.415	28.8474
700.000000	88.359	5.1812
710.000000	88.311	-18.4031
720.000000	88.265	-41.8525
730.000000	88.221	-65.1851
740.000000	88.181	-88.3188
750.000000	88.142	-111.2437
762.000000	88.100	-138.4707
775.000000	88.054	-167.5344
788.000000	87.998	163.7671
800.000000	87.950	137.5066
812.000000	87.914	111.4561
825.000000	87.896	83.4639
838.000000	87.901	55.7241
850.000000	87.916	30.3159
862.000000	87.931	5.0708
875.000000	87.943	-22.1438
885.000000	87.952	-42.9795
900.000000	87.967	-73.9546
912.000000	87.988	-98.4661
925.000000	88.022	-124.7383
938.000000	88.063	-150.5808
950.000000	88.097	-174.0483
962.000000	88.126	162.6636
975.000000	88.152	137.3809
988.000000	88.182	112.0493
1000.000000	88.217	88.8508
1015.000000	88.273	60.2747
1030.000000	88.338	32.1514
1044.000000	88.395	6.1411
1060.000000	88.457	-23.3418
1075.000000	88.521	-50.7983
1090.000000	88.596	-78.1758
1106.000000	88.678	-107.3250
1120.000000	88.746	-132.8257
1138.000000	88.829	-165.5044
1150.000000	88.885	172.9219
1172.000000	88.989	133.8660
1180.000000	89.025	119.7869
1206.000000	89.135	74.3660
1220.000000	89.193	50.1333
1241.000000	89.282	14.1650
1250.000000	89.320	-1.0679
1265.000000	89.381	-26.1938
1280.000000	89.435	-51.0110
1315.000000	89.550	-107.8938
1320.000000	89.567	-115.9084
1340.000000	89.632	-147.7373
1360.000000	89.694	-179.3159
1380.000000	89.760	149.3677
1400.000000	89.831	118.4817
1430.000000	89.925	72.7244
1450.000000	89.987	42.4229
1475.000000	90.081	4.9873
1500.000000	90.170	-31.8687
1525.000000	90.242	-68.4814
1550.000000	90.316	-105.0005
1575.000000	90.390	-141.2466
1600.000000	90.462	-177.0259
1625.000000	90.543	147.8726
1650.000000	90.637	113.6953
1675.000000	90.739	80.3867
1700.000000	90.836	47.5684
1725.000000	90.920	14.7720
1750.000000	91.009	-17.9727
1775.000000	91.119	-50.1133
1800.000000	91.244	-81.3813
1825.000000	91.374	-112.0537
1850.000000	91.507	-142.2764
1875.000000	91.640	-172.0371
1900.000000	91.768	158.5361
1925.000000	91.894	129.3315
1950.000000	92.020	100.3457
1975.000000	92.152	71.7217
2000.000000	92.291	43.6489
2030.000000	92.466	10.8145
2060.000000	92.648	-21.1865
2090.000000	92.831	-52.6021
2120.000000	93.023	-83.7729
2140.000000	93.161	-104.3828
2180.000000	93.444	-144.7368
2200.000000	93.579	-164.4883
2240.000000	93.847	156.6665
2270.000000	94.051	128.0815
2300.000000	94.262	100.0327
2330.000000	94.480	72.5845
2360.000000	94.695	45.8066
2400.000000	94.961	10.9111
2430.000000	95.152	-14.8906
2470.000000	95.402	-48.8506
2500.000000	95.584	-74.0288
2540.000000	95.816	-107.1348
2580.000000	96.028	-139.5825
2620.000000	96.222	-171.3691
2650.000000	96.354	165.1714
2690.000000	96.509	134.3535
2720.000000	96.608	111.6514
2760.000000	96.716	82.0322
2800.000000	96.805	53.2412
2850.000000	96.897	18.5068
2900.000000	96.965	-14.7158
2950.000000	97.000	-46.4951
3000.000000	97.030	-77.2881
3040.000000	97.065	-101.4458
3070.000000	97.092	-119.4141
3110.000000	97.121	-143.2021
3150.000000	97.146	-166.5894
3200.000000	97.162	165.1519
3250.000000	97.147	138.1514
3300.000000	97.112	112.4771
3350.000000	97.069	88.2344
3400.000000	97.019	65.4478
3450.000000	96.959	43.9722
3500.000000	96.896	23.6992
3550.000000	96.832	4.4844
3600.000000	96.761	-13.9355
3650.000000	96.679	-31.7197
3700.000000	96.590	-48.7183
3750.000000	96.504	-64.6201
3820.000000	96.402	-84.8218
3870.000000	96.341	-97.9717
3950.000000	96.266	-117.1968
4000.000000	96.239	-128.0781
4060.000000	96.220	-139.9775
4120.000000	96.207	-150.7837
4180.000000	96.203	-160.6743
4250.000000	96.218	-171.1450
4310.000000	96.242	-179.5063
4370.000000	96.271	172.4023
4440.000000	96.325	163.5137
4500.000000	96.402	156.8911
4550.000000	96.488	152.3110
4620.000000	96.635	147.3428
4680.000000	96.778	144.3164
4750.000000	96.966	142.1821
4820.000000	97.183	141.5620
4870.000000	97.360	141.9795
4940.000000	97.624	143.5200
5000.000000	97.855	145.4634
5080.000000	98.152	148.5977
5150.000000	98.386	151.7378
5220.000000	98.584	155.3008
5300.000000	98.745	159.9214
5380.000000	98.813	165.1699
5450.000000	98.780	170.3174
5520.000000	98.645	175.9873
5600.000000	98.354	-176.8008
5700.000000	97.789	-166.1470
5800.000000	97.037	-152.7637
5900.000000	96.138	-136.1934
6000.000000	95.126	-116.2935
6080.000000	94.268	-97.6377
6150.000000	93.516	-78.9585
6220.000000	92.786	-58.0073
6300.000000	92.003	-31.6367
6400.000000	91.148	4.3901
6500.000000	90.496	43.8564
6600.000000	90.081	86.5161
6700.000000	89.887	131.1821
6800.000000	89.874	176.3115
6900.000000	89.992	-138.5605
7000.000000	90.203	-92.5884
7100.000000	90.476	-45.9893
7200.000000	90.779	0.6729
7300.000000	91.108	49.0010
7400.000000	91.463	100.3701
7500.000000	91.838	153.1836
7620.000000	92.312	-144.0049
7750.000000	92.860	-74.9150
7880.000000	93.459	0.1753
8000.000000	94.055	77.1201
8120.000000	94.658	151.7427
8250.000000	95.258	-135.3452
8380.000000	95.732	-62.1421
8500.000000	95.978	6.2446
8620.000000	95.973	70.7520
8750.000000	95.660	139.2837
8850.000000	95.222	-164.9375
9000.000000	94.317	-74.2085
9120.000000	93.458	6.7559
9250.000000	92.480	102.6108
9380.000000	91.525	-159.7246
9500.000000	90.712	-57.3164
9620.000000	89.997	52.4829
9750.000000	89.348	159.3149
9880.000000	88.808	-88.5603
10000.000000	88.359	17.0562
10150.000000	87.781	122.5137
10300.000000	87.151	-69.5503
10440.000000	86.555	33.7410
10600.000000	85.955	-28.9871
10750.000000	85.543	24.0518
10900.000000	85.318	125.5168
11060.000000	85.307	-59.8870
11200.000000	85.489	153.6416
11380.000000	85.952	-68.2520
11500.000000	86.384	94.6245
11720.000000	87.382	-32.3159
11800.000000	87.799	49.8110
12060.000000	89.230	73.0857
12200.000000	89.907	94.2554
12410.000000	90.449	102.2556
12500.000000	90.407	117.3801
12650.000000	89.940	154.6863
12800.000000	89.228	-171.3596
13150.000000	88.741	-175.6445
13200.000000	88.732	-172.2844
13400.000000	88.359	-57.7623
13600.000000	87.387	3.4998
13800.000000	86.055	30.5481
14000.000000	84.619	37.2726
14300.000000	82.685	-172.8892
14500.000000	81.697	165.3674
14750.000000	80.836	151.5068
15000.000000	80.356	147.9779
15250.000000	80.207	44.9697
15500.000000	80.337	65.6898
15750.000000	80.634	121.3835
16000.000000	80.909	-113.5753
16250.000000	80.947	-98.1660
16500.000000	80.600	-86.9016
16750.000000	79.840	-63.8104
17000.000000	78.759	40.1208
17250.000000	77.533	44.3593
17500.000000	76.346	46.8783
17750.000000	75.309	53.4530
18000.000000	74.438	63.8959
18250.000000	73.661	107.0936
18500.000000	72.841	123.0115
18750.000000	71.843	123.7361
19000.000000	70.627	128.3369
19250.000000	69.325	132.5957
19500.000000	68.232	143.1497
19750.000000	67.578	-126.4772
20000.000000	67.321	-87.7417
