* Measurement data measured by REW V5.31.3
* Source: Microphone (6- USB Sound Device        ), MICROPHONE (Master Volume), L, volume: 0.700
* Format: 256k Log Swept Sine, 1 sweep at -12.0 dBFS with no timing reference
* Dated: 05-Apr-2025 17:33:36
* REW Settings:
*  C-weighting compensation: Off
*  Target level: 75.0 dB
* Note: 
* Measurement: KZ Carol ANC R
* Smoothing: 1/12 octave
* Frequency Step: 1/48 octave
* Start Frequency: 20.300 Hz
*
* Freq(Hz)	SPL(dB)	Phase(degrees)
20.299999	65.679	61.8826
20.600000	65.698	59.6586
20.900000	65.718	56.8598
21.200001	65.732	53.8637
21.400000	65.735	51.8393
21.799999	65.725	47.8240
22.000000	65.714	45.8596
22.400000	65.681	42.0588
22.700001	65.653	39.3355
23.000000	65.626	36.7185
23.299999	65.604	34.1934
23.600000	65.587	31.7411
24.000000	65.568	28.5565
24.299999	65.554	26.2204
24.700001	65.536	23.1722
25.000000	65.523	20.9363
25.400000	65.508	18.0176
25.799999	65.499	15.1538
26.200001	65.498	12.3212
26.500000	65.504	10.2056
26.900000	65.519	7.3908
27.200001	65.536	5.2859
27.600000	65.567	2.4947
28.000000	65.609	-0.2722
28.500000	65.674	-3.6937
29.000000	65.749	-7.0798
29.500000	65.831	-10.4436
30.000000	65.917	-13.8041
30.400000	65.988	-16.5060
30.700001	66.044	-18.5484
31.100000	66.120	-21.2990
31.500000	66.198	-24.0826
32.000000	66.300	-27.6013
32.500000	66.405	-31.1487
33.000000	66.511	-34.7123
33.500000	66.618	-38.2875
34.000000	66.724	-41.8745
34.500000	66.828	-45.4743
35.000000	66.928	-49.0880
35.500000	67.026	-52.7184
36.000000	67.121	-56.3698
36.500000	67.215	-60.0437
37.000000	67.307	-63.7361
37.500000	67.397	-67.4392
38.200001	67.516	-72.6331
38.700001	67.599	-76.3552
39.500000	67.725	-82.3540
40.000000	67.801	-86.1331
40.599998	67.894	-90.6814
41.200001	67.991	-95.2209
41.799999	68.090	-99.7406
42.500000	68.199	-105.0018
43.099998	68.278	-109.5148
43.700001	68.340	-114.0228
44.400002	68.403	-119.2406
45.000000	68.458	-123.6569
45.500000	68.507	-127.3047
46.200001	68.574	-132.4001
46.799999	68.625	-136.7930
47.500000	68.677	-141.9752
48.200001	68.727	-147.2140
48.700001	68.762	-150.9651
49.400002	68.805	-156.1766
50.000000	68.833	-160.5762
50.799999	68.855	-166.3672
51.500000	68.865	-171.4191
52.200001	68.872	-176.4800
53.000000	68.879	177.7581
53.799999	68.883	172.0609
54.500000	68.885	167.1279
55.200001	68.891	162.2170
56.000000	68.901	156.6140
57.000000	68.911	149.6582
58.000000	68.905	142.7822
59.000000	68.885	135.9392
60.000000	68.872	129.1167
60.799999	68.876	123.6945
61.500000	68.888	118.9795
62.200001	68.897	114.2819
63.000000	68.899	108.9186
64.000000	68.884	102.2198
65.000000	68.853	95.5750
66.000000	68.813	89.0383
67.000000	68.772	82.5936
68.000000	68.734	76.1775
69.000000	68.696	69.7603
70.000000	68.665	63.3416
71.000000	68.646	56.9296
72.000000	68.629	50.5738
73.000000	68.605	44.3152
74.000000	68.574	38.1089
75.000000	68.545	31.8755
76.199997	68.514	24.3455
77.500000	68.479	16.2303
78.800003	68.436	8.2228
80.000000	68.398	0.8889
81.199997	68.362	-6.4174
82.500000	68.323	-14.2884
83.800003	68.290	-22.1227
85.000000	68.267	-29.3019
86.199997	68.246	-36.4138
87.500000	68.215	-44.0964
88.500000	68.184	-50.0292
90.000000	68.128	-58.9592
91.199997	68.081	-66.0984
92.500000	68.034	-73.7914
93.800003	67.991	-81.3911
95.000000	67.957	-88.3490
96.199997	67.929	-95.2989
97.500000	67.898	-102.8040
98.800003	67.861	-110.2814
100.000000	67.822	-117.1970
101.500000	67.776	-125.8709
103.000000	67.734	-134.5461
104.400002	67.695	-142.6203
106.000000	67.651	-151.8179
107.500000	67.609	-160.4472
109.000000	67.564	-169.0702
110.599998	67.509	-178.1974
112.000000	67.452	173.8830
113.800003	67.373	163.8094
115.000000	67.316	157.1653
117.199997	67.201	144.9944
118.000000	67.158	140.5447
120.599998	67.022	125.9910
122.000000	66.951	118.1248
124.099998	66.850	106.3936
125.000000	66.808	101.3995
126.500000	66.733	93.1113
128.000000	66.648	84.8840
131.500000	66.400	65.9158
132.000000	66.361	63.2059
134.000000	66.211	52.3198
136.000000	66.063	41.3807
138.000000	65.909	30.4156
140.000000	65.741	19.4640
143.000000	65.461	3.1844
145.000000	65.252	-7.5151
147.500000	64.968	-20.6947
150.000000	64.666	-33.6440
152.500000	64.336	-46.3627
155.000000	63.961	-58.9610
157.500000	63.543	-71.3992
160.000000	63.101	-83.4906
162.500000	62.650	-95.1423
165.000000	62.199	-106.3514
167.500000	61.755	-117.0856
170.000000	61.320	-127.3414
172.500000	60.917	-137.1179
175.000000	60.574	-146.4329
177.500000	60.314	-155.3445
180.000000	60.148	-163.9888
182.500000	60.077	-172.6116
185.000000	60.096	178.5598
187.500000	60.187	169.3975
190.000000	60.333	159.8650
192.500000	60.520	149.9558
195.000000	60.732	139.6946
197.500000	60.958	129.1230
200.000000	61.191	118.2845
203.000000	61.459	105.0356
206.000000	61.694	91.5994
209.000000	61.882	77.9763
212.000000	62.027	64.1882
214.000000	62.103	54.9556
218.000000	62.212	36.4525
220.000000	62.249	27.2131
224.000000	62.294	8.8849
227.000000	62.298	-4.7667
230.000000	62.275	-18.4321
233.000000	62.232	-32.1161
236.000000	62.177	-45.7776
240.000000	62.092	-63.8647
243.000000	62.018	-77.2616
247.000000	61.898	-94.8834
250.000000	61.793	-107.9806
254.000000	61.642	-125.3871
258.000000	61.485	-142.6846
262.000000	61.323	-159.7596
265.000000	61.199	-172.3732
269.000000	61.032	171.0754
272.000000	60.907	158.7911
276.000000	60.748	142.4797
280.000000	60.605	126.2407
285.000000	60.444	106.0809
290.000000	60.297	86.0720
295.000000	60.156	66.2782
300.000000	60.022	46.7218
304.000000	59.927	31.1855
307.000000	59.864	19.5553
311.000000	59.791	4.0636
315.000000	59.727	-11.3606
320.000000	59.654	-30.4719
325.000000	59.585	-49.4235
330.000000	59.523	-68.2744
335.000000	59.480	-87.0822
340.000000	59.468	-105.9321
345.000000	59.477	-124.8136
350.000000	59.494	-143.6427
355.000000	59.512	-162.4421
360.000000	59.535	178.8226
365.000000	59.559	160.2465
370.000000	59.579	141.7745
375.000000	59.592	123.3087
382.000000	59.614	97.3809
387.000000	59.642	78.7860
395.000000	59.705	49.0828
400.000000	59.753	30.7126
406.000000	59.811	8.8485
412.000000	59.855	-12.9830
418.000000	59.882	-34.9556
425.000000	59.908	-60.7029
431.000000	59.929	-82.6973
437.000000	59.945	-104.5273
444.000000	59.956	-129.7349
450.000000	59.963	-151.1646
455.000000	59.967	-168.9673
462.000000	59.976	166.0498
468.000000	59.993	144.6216
475.000000	60.017	119.7473
482.000000	60.031	95.0962
487.000000	60.032	77.5916
494.000000	60.025	53.1438
500.000000	60.024	32.2385
508.000000	60.034	4.4709
515.000000	60.043	-19.7688
522.000000	60.049	-43.9666
530.000000	60.053	-71.4727
538.000000	60.053	-98.7642
545.000000	60.048	-122.4819
552.000000	60.043	-146.0498
560.000000	60.036	-172.8140
570.000000	60.024	153.8625
580.000000	60.005	120.6475
590.000000	59.981	87.6289
600.000000	59.954	54.8718
608.000000	59.934	28.8027
615.000000	59.919	6.1150
622.000000	59.903	-16.4082
630.000000	59.881	-42.0056
640.000000	59.846	-74.0122
650.000000	59.817	-106.0688
660.000000	59.796	-137.9995
670.000000	59.773	-169.6553
680.000000	59.745	158.9243
690.000000	59.717	127.7625
700.000000	59.696	97.0159
710.000000	59.682	66.3950
720.000000	59.676	35.5454
730.000000	59.683	4.6538
740.000000	59.695	-25.8784
750.000000	59.708	-56.0569
762.000000	59.722	-91.9626
775.000000	59.723	-130.8279
788.000000	59.696	-169.5591
800.000000	59.639	155.0862
812.000000	59.552	120.0010
825.000000	59.448	82.3184
838.000000	59.386	45.2292
850.000000	59.401	11.1641
862.000000	59.460	-22.9321
875.000000	59.532	-59.7249
885.000000	59.580	-87.8984
900.000000	59.646	-130.0537
912.000000	59.700	-163.5996
925.000000	59.759	160.2939
938.000000	59.819	124.3477
950.000000	59.877	91.2847
962.000000	59.940	58.3435
975.000000	60.013	22.8127
988.000000	60.095	-12.5588
1000.000000	60.175	-45.0911
1015.000000	60.274	-85.4036
1030.000000	60.363	-125.3918
1044.000000	60.443	-162.8062
1060.000000	60.545	154.3601
1075.000000	60.647	114.5305
1090.000000	60.742	75.0466
1106.000000	60.835	33.1533
1120.000000	60.915	-3.3818
1138.000000	61.019	-50.1450
1150.000000	61.087	-81.2129
1172.000000	61.208	-137.9771
1180.000000	61.249	-158.4507
1206.000000	61.370	135.7339
1220.000000	61.428	100.6587
1241.000000	61.511	48.1094
1250.000000	61.549	25.5776
1265.000000	61.617	-11.7773
1280.000000	61.686	-48.7930
1315.000000	61.817	-134.0894
1320.000000	61.828	-146.1792
1340.000000	61.843	165.6411
1360.000000	61.808	117.7041
1380.000000	61.736	69.9980
1400.000000	61.652	22.7002
1430.000000	61.555	-47.3936
1450.000000	61.532	-93.9395
1475.000000	61.541	-151.6221
1500.000000	61.571	151.5527
1525.000000	61.607	95.1748
1550.000000	61.658	38.7422
1575.000000	61.723	-17.0820
1600.000000	61.780	-71.6235
1625.000000	61.822	-125.6455
1650.000000	61.866	179.9829
1675.000000	61.931	125.6079
1700.000000	62.015	71.8828
1725.000000	62.097	18.9883
1750.000000	62.168	-33.2529
1775.000000	62.237	-85.5498
1800.000000	62.316	-137.5957
1825.000000	62.404	170.9438
1850.000000	62.499	119.6812
1875.000000	62.600	68.8828
1900.000000	62.697	18.7959
1925.000000	62.787	-30.9097
1950.000000	62.879	-80.6064
1975.000000	62.981	-130.3364
2000.000000	63.091	-179.5713
2030.000000	63.224	122.4551
2060.000000	63.359	64.6787
2090.000000	63.505	6.8467
2120.000000	63.660	-50.1279
2140.000000	63.766	-87.7451
2180.000000	63.986	-162.7793
2200.000000	64.099	160.1260
2240.000000	64.324	86.7686
2270.000000	64.498	31.6973
2300.000000	64.688	-22.9619
2330.000000	64.893	-76.7256
2360.000000	65.096	-129.8511
2400.000000	65.355	159.4668
2430.000000	65.551	106.3154
2470.000000	65.827	36.2935
2500.000000	66.039	-15.6538
2540.000000	66.323	-84.6675
2580.000000	66.610	-152.8652
2620.000000	66.899	139.6963
2650.000000	67.117	89.2729
2690.000000	67.407	22.4731
2720.000000	67.622	-27.0938
2760.000000	67.900	-92.5728
2800.000000	68.163	-157.4102
2850.000000	68.473	122.3848
2900.000000	68.767	42.7524
2950.000000	69.063	-36.1284
3000.000000	69.371	-114.1465
3040.000000	69.621	-176.0664
3070.000000	69.807	137.7915
3110.000000	70.050	76.8086
3150.000000	70.279	16.8296
3200.000000	70.528	-57.9893
3250.000000	70.725	-132.8184
3300.000000	70.859	153.8955
3350.000000	70.929	81.1621
3400.000000	70.945	8.6025
3450.000000	70.911	-62.3877
3500.000000	70.830	-132.1875
3550.000000	70.709	158.6719
3600.000000	70.558	90.2588
3650.000000	70.393	22.7715
3700.000000	70.223	-43.4502
3750.000000	70.049	-108.5322
3820.000000	69.809	161.5352
3870.000000	69.642	98.1377
3950.000000	69.389	-1.8164
4000.000000	69.238	-63.3916
4060.000000	69.064	-135.4355
4120.000000	68.893	154.4658
4180.000000	68.718	84.6738
4250.000000	68.514	3.4395
4310.000000	68.347	-64.5684
4370.000000	68.196	-131.4502
4440.000000	68.060	151.2891
4500.000000	67.984	86.0586
4550.000000	67.948	32.4707
4620.000000	67.932	-41.2305
4680.000000	67.942	-103.5410
4750.000000	67.973	-175.4307
4820.000000	68.021	113.7139
4870.000000	68.064	63.9922
4940.000000	68.129	-4.2744
5000.000000	68.186	-62.0283
5080.000000	68.256	-138.9395
5150.000000	68.313	154.4736
5220.000000	68.357	89.5420
5300.000000	68.376	16.4756
5380.000000	68.353	-55.8496
5450.000000	68.295	-118.0801
5520.000000	68.194	-179.1221
5600.000000	68.016	112.7109
5700.000000	67.683	29.1152
5800.000000	67.251	-52.6270
5900.000000	66.771	-131.7773
6000.000000	66.301	152.5244
6080.000000	65.952	94.0967
6150.000000	65.671	43.6211
6220.000000	65.419	-6.3936
6300.000000	65.175	-62.4473
6400.000000	64.957	-130.5244
6500.000000	64.851	163.1982
6600.000000	64.855	98.0713
6700.000000	64.947	34.5566
6800.000000	65.088	-27.0938
6900.000000	65.240	-87.3789
7000.000000	65.380	-146.5078
7100.000000	65.498	155.7539
7200.000000	65.601	99.6729
7300.000000	65.693	45.6641
7400.000000	65.781	-6.7295
7500.000000	65.879	-58.4219
7620.000000	66.032	-118.9092
7750.000000	66.214	178.5420
7880.000000	66.364	118.5244
8000.000000	66.461	65.3516
8120.000000	66.540	14.6650
8250.000000	66.634	-38.0938
8380.000000	66.771	-89.4912
8500.000000	66.954	-135.4766
8620.000000	67.189	-179.8672
8750.000000	67.483	133.7656
8850.000000	67.719	99.3789
9000.000000	68.049	50.0322
9120.000000	68.265	12.3613
9250.000000	68.423	-26.9160
9380.000000	68.495	-64.5664
9500.000000	68.493	-97.7002
9620.000000	68.437	-129.1895
9750.000000	68.320	-161.5195
9880.000000	68.140	167.9658
10000.000000	67.895	141.5332
10150.000000	67.448	111.1133
10300.000000	66.846	83.9590
10440.000000	66.203	61.8008
10600.000000	65.483	40.3418
10750.000000	64.922	23.8223
10900.000000	64.533	10.4023
11060.000000	64.340	-1.0273
11200.000000	64.362	-8.9004
11380.000000	64.631	-16.4385
11500.000000	64.947	-20.0381
11720.000000	65.811	-24.1328
11800.000000	66.219	-24.9863
12060.000000	67.833	-26.7852
12200.000000	68.763	-28.1475
12410.000000	69.827	-31.8877
12500.000000	70.006	-33.7607
12650.000000	69.787	-34.9551
12800.000000	69.056	-29.2275
13150.000000	68.245	7.2207
13200.000000	68.256	10.6484
13400.000000	67.964	20.0293
13600.000000	66.860	30.1611
13800.000000	65.180	46.4688
14000.000000	63.278	70.6406
14300.000000	60.559	123.7969
14500.000000	59.079	170.6484
14750.000000	57.714	-122.7188
15000.000000	56.869	-51.6182
15250.000000	56.520	27.4160
15500.000000	56.621	118.2627
15750.000000	57.049	-151.5215
16000.000000	57.570	-76.0771
16250.000000	57.867	-14.2529
16500.000000	57.652	39.5518
16750.000000	56.793	91.5850
17000.000000	55.370	148.2334
17250.000000	53.596	-139.0479
17500.000000	51.716	19.3057
17750.000000	49.932	148.8350
18000.000000	48.392	-116.6670
18250.000000	47.194	40.3125
18500.000000	46.369	160.3379
18750.000000	45.883	-65.6006
19000.000000	45.727	74.2764
19250.000000	45.910	-131.9062
19500.000000	46.356	-89.8369
19750.000000	46.864	-93.6445
20000.000000	47.183	-81.4570
