* Measurement data measured by REW V5.20.13
* Source: Microphone (USB Audio Device), MICROPHONE (Master Volume), L, volume: 0.250. Timing signal peak level -28.9 dBFS, measurement signal peak level -28.1 dBFS
* Format: 256k Log Swept Sine, 1 sweep at -12.0 dBFS using an acoustic timing reference
* Dated: 08-Apr-2023 10:53:23
* REW Settings:
*  C-weighting compensation: Off
*  Target level: 75.0 dB
* Note: 
* Measurement: KZ SKS
* Smoothing: 1/12 octave
* Frequency Step: 1/48 octave
* Start Frequency: 20.300 Hz
*
* Freq(Hz)	SPL(dB)	Phase(degrees)
20.299999	67.321	87.5756
20.600000	67.358	86.8142
20.900000	67.450	85.2051
21.200001	67.556	83.4459
21.400000	67.634	82.2884
21.799999	67.800	80.0929
22.000000	67.888	79.0839
22.400000	68.065	77.2541
22.700001	68.193	76.0332
23.000000	68.309	74.9158
23.299999	68.410	73.8677
23.600000	68.495	72.8571
24.000000	68.586	71.5202
24.299999	68.644	70.4965
24.700001	68.718	69.0844
25.000000	68.778	67.9914
25.400000	68.868	66.5095
25.799999	68.971	65.0398
26.200001	69.080	63.6246
26.500000	69.163	62.6138
26.900000	69.269	61.3334
27.200001	69.344	60.4117
27.600000	69.437	59.2119
28.000000	69.522	58.0230
28.500000	69.623	56.5380
29.000000	69.724	55.0616
29.500000	69.829	53.6030
30.000000	69.938	52.1574
30.400000	70.022	51.0021
30.700001	70.081	50.1343
31.100000	70.152	48.9788
31.500000	70.216	47.8332
32.000000	70.288	46.4292
32.500000	70.358	45.0668
33.000000	70.426	43.7454
33.500000	70.493	42.4543
34.000000	70.556	41.1758
34.500000	70.614	39.8912
35.000000	70.665	38.5872
35.500000	70.712	37.2590
36.000000	70.757	35.9137
36.500000	70.803	34.5675
37.000000	70.849	33.2408
37.500000	70.895	31.9458
38.200001	70.958	30.1789
38.700001	71.001	28.9309
39.500000	71.062	26.9365
40.000000	71.095	25.7000
40.599998	71.132	24.2383
41.200001	71.167	22.7982
41.799999	71.202	21.3710
42.500000	71.241	19.7193
43.099998	71.274	18.3167
43.700001	71.305	16.9216
44.400002	71.338	15.2982
45.000000	71.361	13.9169
45.500000	71.376	12.7806
46.200001	71.393	11.2158
46.799999	71.407	9.8957
47.500000	71.426	8.3801
48.200001	71.449	6.8937
48.700001	71.465	5.8451
49.400002	71.485	4.3809
50.000000	71.492	3.1219
50.799999	71.487	1.4389
51.500000	71.474	-0.0350
52.200001	71.459	-1.5090
53.000000	71.441	-3.1778
53.799999	71.421	-4.8047
54.500000	71.404	-6.1908
55.200001	71.387	-7.5550
56.000000	71.369	-9.1006
57.000000	71.344	-11.0081
58.000000	71.312	-12.8712
59.000000	71.273	-14.7026
60.000000	71.227	-16.5457
60.799999	71.185	-18.0372
61.500000	71.147	-19.3424
62.200001	71.108	-20.6386
63.000000	71.061	-22.1064
64.000000	70.996	-23.9184
65.000000	70.926	-25.6904
66.000000	70.852	-27.4059
67.000000	70.774	-29.0683
68.000000	70.690	-30.6975
69.000000	70.598	-32.3068
70.000000	70.504	-33.8979
71.000000	70.410	-35.4729
72.000000	70.313	-37.0291
73.000000	70.212	-38.5561
74.000000	70.108	-40.0424
75.000000	69.999	-41.4778
76.199997	69.860	-43.1244
77.500000	69.705	-44.8177
78.800003	69.552	-46.4218
80.000000	69.410	-47.8216
81.199997	69.266	-49.1439
82.500000	69.110	-50.5005
83.800003	68.952	-51.7852
85.000000	68.806	-52.8970
86.199997	68.660	-53.9416
87.500000	68.504	-55.0242
88.500000	68.385	-55.8331
90.000000	68.207	-56.9944
91.199997	68.064	-57.8642
92.500000	67.911	-58.7428
93.800003	67.758	-59.5659
95.000000	67.616	-60.2957
96.199997	67.475	-61.0048
97.500000	67.326	-61.7388
98.800003	67.181	-62.4232
100.000000	67.049	-63.0087
101.500000	66.889	-63.6846
103.000000	66.733	-64.3042
104.400002	66.593	-64.8467
106.000000	66.437	-65.4520
107.500000	66.297	-66.0146
109.000000	66.163	-66.5577
110.599998	66.025	-67.0971
112.000000	65.908	-67.5393
113.800003	65.761	-68.0822
115.000000	65.665	-68.4322
117.199997	65.495	-69.0422
118.000000	65.436	-69.2518
120.599998	65.253	-69.9084
122.000000	65.161	-70.2552
124.099998	65.024	-70.7637
125.000000	64.965	-70.9802
126.500000	64.867	-71.3455
128.000000	64.772	-71.7203
131.500000	64.572	-72.6022
132.000000	64.544	-72.7222
134.000000	64.433	-73.1826
136.000000	64.323	-73.6342
138.000000	64.222	-74.0950
140.000000	64.126	-74.5620
143.000000	63.985	-75.2563
145.000000	63.898	-75.6968
147.500000	63.800	-76.2581
150.000000	63.712	-76.8546
152.500000	63.626	-77.4256
155.000000	63.539	-77.9563
157.500000	63.458	-78.4835
160.000000	63.381	-79.0250
162.500000	63.305	-79.5668
165.000000	63.228	-80.0893
167.500000	63.151	-80.5986
170.000000	63.077	-81.1199
172.500000	63.008	-81.6584
175.000000	62.940	-82.1840
177.500000	62.870	-82.6894
180.000000	62.795	-83.1927
182.500000	62.713	-83.6945
185.000000	62.623	-84.1948
187.500000	62.525	-84.7068
190.000000	62.424	-85.2410
192.500000	62.326	-85.7945
195.000000	62.238	-86.3571
197.500000	62.164	-86.9154
200.000000	62.104	-87.4535
203.000000	62.054	-88.0655
206.000000	62.021	-88.6559
209.000000	61.998	-89.2476
212.000000	61.974	-89.8562
214.000000	61.953	-90.2718
218.000000	61.890	-91.1173
220.000000	61.851	-91.5441
224.000000	61.769	-92.3990
227.000000	61.708	-93.0393
230.000000	61.647	-93.6842
233.000000	61.584	-94.3337
236.000000	61.519	-94.9752
240.000000	61.434	-95.8115
243.000000	61.372	-96.4399
247.000000	61.290	-97.2828
250.000000	61.232	-97.8991
254.000000	61.163	-98.6745
258.000000	61.099	-99.4139
262.000000	61.034	-100.1475
265.000000	60.983	-100.7007
269.000000	60.916	-101.4388
272.000000	60.865	-101.9848
276.000000	60.798	-102.6955
280.000000	60.733	-103.3934
285.000000	60.656	-104.2579
290.000000	60.584	-105.1175
295.000000	60.513	-105.9846
300.000000	60.440	-106.8372
304.000000	60.381	-107.5011
307.000000	60.336	-107.9986
311.000000	60.278	-108.6711
315.000000	60.219	-109.3487
320.000000	60.145	-110.1943
325.000000	60.075	-111.0594
330.000000	60.005	-111.9524
335.000000	59.934	-112.8349
340.000000	59.869	-113.6851
345.000000	59.810	-114.5185
350.000000	59.751	-115.3501
355.000000	59.689	-116.1765
360.000000	59.629	-116.9807
365.000000	59.573	-117.7640
370.000000	59.518	-118.5578
375.000000	59.460	-119.3820
382.000000	59.378	-120.5638
387.000000	59.323	-121.3820
395.000000	59.237	-122.6271
400.000000	59.181	-123.4169
406.000000	59.113	-124.4149
412.000000	59.046	-125.4528
418.000000	58.979	-126.4875
425.000000	58.900	-127.6761
431.000000	58.830	-128.6893
437.000000	58.758	-129.6878
444.000000	58.674	-130.8057
450.000000	58.606	-131.7125
455.000000	58.555	-132.4372
462.000000	58.490	-133.4202
468.000000	58.439	-134.2432
475.000000	58.378	-135.1948
482.000000	58.310	-136.1748
487.000000	58.254	-136.9254
494.000000	58.169	-138.0561
500.000000	58.095	-139.0600
508.000000	58.000	-140.3962
515.000000	57.921	-141.5514
522.000000	57.843	-142.6919
530.000000	57.758	-143.9786
538.000000	57.677	-145.2277
545.000000	57.606	-146.2805
552.000000	57.531	-147.3070
560.000000	57.442	-148.4781
570.000000	57.330	-149.9600
580.000000	57.218	-151.4157
590.000000	57.102	-152.8013
600.000000	56.984	-154.1086
608.000000	56.890	-155.1029
615.000000	56.807	-155.9232
622.000000	56.725	-156.6806
630.000000	56.632	-157.4699
640.000000	56.520	-158.3939
650.000000	56.418	-159.3337
660.000000	56.323	-160.3261
670.000000	56.223	-161.3491
680.000000	56.119	-162.3600
690.000000	56.020	-163.3031
700.000000	55.932	-164.1557
710.000000	55.855	-164.9293
720.000000	55.789	-165.6763
730.000000	55.737	-166.4516
740.000000	55.699	-167.2540
750.000000	55.674	-168.0522
762.000000	55.665	-168.9746
775.000000	55.685	-169.9432
788.000000	55.727	-170.9695
800.000000	55.780	-171.9780
812.000000	55.837	-173.0014
825.000000	55.899	-174.1517
838.000000	55.968	-175.3862
850.000000	56.040	-176.6154
862.000000	56.125	-177.9394
875.000000	56.236	-179.4512
885.000000	56.332	179.3526
900.000000	56.480	177.5018
912.000000	56.590	175.9678
925.000000	56.696	174.2981
938.000000	56.794	172.6685
950.000000	56.882	171.1957
962.000000	56.964	169.7376
975.000000	57.042	168.1655
988.000000	57.111	166.5905
1000.000000	57.168	165.1093
1015.000000	57.234	163.1880
1030.000000	57.298	161.2029
1044.000000	57.358	159.3158
1060.000000	57.429	157.1601
1075.000000	57.500	155.1771
1090.000000	57.573	153.2347
1106.000000	57.650	151.1989
1120.000000	57.713	149.4288
1138.000000	57.786	147.1471
1150.000000	57.836	145.6337
1172.000000	57.934	142.9023
1180.000000	57.973	141.9290
1206.000000	58.105	138.8576
1220.000000	58.182	137.2442
1241.000000	58.305	134.8800
1250.000000	58.361	133.8978
1265.000000	58.464	132.3068
1280.000000	58.576	130.7692
1315.000000	58.823	127.2674
1320.000000	58.851	126.7542
1340.000000	58.931	124.6241
1360.000000	58.962	122.3959
1380.000000	58.957	120.1619
1400.000000	58.942	118.0185
1430.000000	58.950	115.0739
1450.000000	58.990	113.2360
1475.000000	59.073	110.8763
1500.000000	59.177	108.3204
1525.000000	59.302	105.6684
1550.000000	59.442	103.0303
1575.000000	59.585	100.3334
1600.000000	59.724	97.5363
1625.000000	59.864	94.7269
1650.000000	60.016	91.9675
1675.000000	60.176	89.2327
1700.000000	60.340	86.4698
1725.000000	60.505	83.6758
1750.000000	60.673	80.8615
1775.000000	60.843	78.0564
1800.000000	61.019	75.3005
1825.000000	61.203	72.5724
1850.000000	61.390	69.8035
1875.000000	61.578	66.9331
1900.000000	61.768	63.9551
1925.000000	61.964	60.9256
1950.000000	62.166	57.8817
1975.000000	62.370	54.8087
2000.000000	62.575	51.6852
2030.000000	62.826	47.8923
2060.000000	63.087	44.0934
2090.000000	63.357	40.2935
2120.000000	63.637	36.4536
2140.000000	63.829	33.8347
2180.000000	64.215	28.3189
2200.000000	64.406	25.3763
2240.000000	64.781	19.1422
2270.000000	65.062	14.2078
2300.000000	65.345	9.0653
2330.000000	65.628	3.7179
2360.000000	65.911	-1.8243
2400.000000	66.285	-9.4736
2430.000000	66.558	-15.3651
2470.000000	66.912	-23.4016
2500.000000	67.169	-29.5699
2540.000000	67.498	-37.9823
2580.000000	67.809	-46.5745
2620.000000	68.097	-55.2727
2650.000000	68.295	-61.7979
2690.000000	68.540	-70.4301
2720.000000	68.707	-76.8658
2760.000000	68.904	-85.4976
2800.000000	69.068	-94.2797
2850.000000	69.231	-105.3912
2900.000000	69.368	-116.4484
2950.000000	69.473	-127.4887
3000.000000	69.538	-138.6257
3040.000000	69.567	-147.5256
3070.000000	69.578	-154.1450
3110.000000	69.577	-162.8702
3150.000000	69.562	-171.4636
3200.000000	69.535	177.9891
3250.000000	69.505	167.6619
3300.000000	69.471	157.5408
3350.000000	69.433	147.5681
3400.000000	69.390	137.6845
3450.000000	69.345	127.8785
3500.000000	69.304	118.1372
3550.000000	69.270	108.3717
3600.000000	69.239	98.5244
3650.000000	69.220	88.7345
3700.000000	69.223	79.2861
3750.000000	69.257	70.3790
3820.000000	69.352	58.7425
3870.000000	69.445	50.7501
3950.000000	69.628	38.0037
4000.000000	69.760	29.9252
4060.000000	69.931	20.0109
4120.000000	70.111	9.7338
4180.000000	70.296	-1.0508
4250.000000	70.510	-14.3826
4310.000000	70.694	-26.2753
4370.000000	70.905	-38.2975
4440.000000	71.211	-52.4359
4500.000000	71.502	-64.8783
4550.000000	71.737	-75.6105
4620.000000	72.027	-91.1979
4680.000000	72.231	-104.9255
4750.000000	72.417	-121.1706
4820.000000	72.547	-137.6343
4870.000000	72.608	-149.5645
4940.000000	72.652	-166.5088
5000.000000	72.648	178.8129
5080.000000	72.565	159.1279
5150.000000	72.394	141.8369
5220.000000	72.108	124.6118
5300.000000	71.640	105.3611
5380.000000	71.032	86.9575
5450.000000	70.403	71.7115
5520.000000	69.709	57.3087
5600.000000	68.869	41.7886
5700.000000	67.798	23.3909
5800.000000	66.748	5.5502
5900.000000	65.756	-12.1958
6000.000000	64.840	-30.0013
6080.000000	64.163	-44.0640
6150.000000	63.610	-55.9550
6220.000000	63.091	-67.2616
6300.000000	62.539	-79.3613
6400.000000	61.907	-93.2249
6500.000000	61.341	-105.6851
6600.000000	60.843	-116.7283
6700.000000	60.423	-126.3645
6800.000000	60.086	-134.8784
6900.000000	59.824	-142.9075
7000.000000	59.628	-151.0020
7100.000000	59.504	-159.2811
7200.000000	59.464	-167.4775
7300.000000	59.517	-175.3838
7400.000000	59.663	176.8635
7500.000000	59.905	169.0243
7620.000000	60.315	159.2689
7750.000000	60.871	148.2490
7880.000000	61.481	136.8613
8000.000000	62.035	125.6379
8120.000000	62.534	112.9498
8250.000000	62.944	96.8022
8380.000000	63.135	78.3536
8500.000000	63.048	60.2089
8620.000000	62.656	41.7751
8750.000000	61.881	22.2275
8850.000000	61.071	8.0725
9000.000000	59.632	-11.0548
9120.000000	58.392	-24.7977
9250.000000	57.046	-38.8479
9380.000000	55.753	-52.3591
9500.000000	54.643	-64.1970
9620.000000	53.635	-75.1876
9750.000000	52.667	-86.1176
9880.000000	51.817	-96.0817
10000.000000	51.134	-104.3771
10150.000000	50.413	-113.5869
10300.000000	49.842	-121.8319
10440.000000	49.461	-129.1379
10600.000000	49.234	-137.4581
10750.000000	49.238	-145.3596
10900.000000	49.446	-153.5146
11060.000000	49.877	-162.7678
11200.000000	50.408	-171.5789
11380.000000	51.266	176.2112
11500.000000	51.938	168.0193
11720.000000	53.356	153.6821
11800.000000	53.914	148.4546
12060.000000	55.746	128.9780
12200.000000	56.649	115.7653
12410.000000	57.707	91.2156
12500.000000	57.999	78.9298
12650.000000	58.214	56.5553
12800.000000	58.055	32.8657
13150.000000	56.288	-19.1973
13200.000000	55.903	-25.6970
13400.000000	54.146	-49.1017
13600.000000	52.194	-69.1543
13800.000000	50.241	-86.8691
14000.000000	48.443	-102.9158
14300.000000	46.230	-125.8821
14500.000000	45.094	-141.8030
14750.000000	44.005	-162.2690
15000.000000	43.224	177.6035
15250.000000	42.674	158.4614
15500.000000	42.343	141.0391
15750.000000	42.336	125.0066
16000.000000	42.809	108.6914
16250.000000	43.767	90.8677
16500.000000	44.953	70.7837
16750.000000	45.976	47.4426
17000.000000	46.522	20.6606
17250.000000	46.461	-7.7056
17500.000000	45.843	-34.7795
17750.000000	44.856	-58.5540
18000.000000	43.775	-78.6030
18250.000000	42.891	-95.6382
18500.000000	42.384	-110.6931
18750.000000	42.319	-124.3994
19000.000000	42.794	-136.6287
19250.000000	43.927	-146.8179
19500.000000	45.512	-155.1802
19750.000000	46.972	-162.5486
