* Measurement data measured by REW V5.31.3
* Source: Microphone (USB Audio Device), MICROPHONE (Master Volume), R, volume: 0.500
* Format: 256k Log Swept Sine, 1 sweep at -12.0 dBFS with no timing reference
* Dated: 23-Dec-2024 11:58:12
* REW Settings:
*  C-weighting compensation: Off
*  Target level: 75.0 dB
* Note: 
* Measurement: KZ Saga L
* Smoothing: 1/12 octave
* Frequency Step: 1/48 octave
* Start Frequency: 20.300 Hz
*
* Freq(Hz)	SPL(dB)	Phase(degrees)
20.299999	76.992	74.0015
20.600000	77.052	73.1565
20.900000	77.125	72.1030
21.200001	77.203	70.9875
21.400000	77.255	70.2405
21.799999	77.358	68.7700
22.000000	77.409	68.0522
22.400000	77.512	66.6556
22.700001	77.588	65.6401
23.000000	77.661	64.6472
23.299999	77.731	63.6723
23.600000	77.796	62.7108
24.000000	77.875	61.4441
24.299999	77.930	60.5033
24.700001	77.999	59.2607
25.000000	78.049	58.3390
25.400000	78.114	57.1286
25.799999	78.177	55.9467
26.200001	78.236	54.7999
26.500000	78.278	53.9636
26.900000	78.330	52.8753
27.200001	78.367	52.0722
27.600000	78.416	51.0075
28.000000	78.464	49.9412
28.500000	78.523	48.6066
29.000000	78.580	47.2877
29.500000	78.634	46.0084
30.000000	78.685	44.7804
30.400000	78.722	43.8320
30.700001	78.747	43.1363
31.100000	78.777	42.2240
31.500000	78.805	41.3245
32.000000	78.837	40.2136
32.500000	78.869	39.1162
33.000000	78.900	38.0338
33.500000	78.928	36.9712
34.000000	78.953	35.9324
34.500000	78.974	34.9155
35.000000	78.993	33.9136
35.500000	79.010	32.9218
36.000000	79.026	31.9436
36.500000	79.043	30.9893
37.000000	79.059	30.0653
37.500000	79.075	29.1674
38.200001	79.090	27.9331
38.700001	79.095	27.0596
39.500000	79.095	25.6870
40.000000	79.093	24.8517
40.599998	79.092	23.8689
41.200001	79.093	22.8994
41.799999	79.095	21.9410
42.500000	79.095	20.8459
43.099998	79.091	19.9376
43.700001	79.087	19.0623
44.400002	79.081	18.0773
45.000000	79.075	17.2510
45.500000	79.068	16.5683
46.200001	79.054	15.6215
46.799999	79.040	14.8233
47.500000	79.025	13.9106
48.200001	79.012	13.0190
48.700001	79.003	12.3991
49.400002	78.992	11.5605
50.000000	78.980	10.8629
50.799999	78.956	9.9397
51.500000	78.930	9.1316
52.200001	78.902	8.3353
53.000000	78.870	7.4488
53.799999	78.837	6.5826
54.500000	78.809	5.8416
55.200001	78.780	5.1186
56.000000	78.746	4.3108
57.000000	78.701	3.3234
58.000000	78.654	2.3623
59.000000	78.607	1.4284
60.000000	78.559	0.5252
60.799999	78.521	-0.1759
61.500000	78.486	-0.7770
62.200001	78.452	-1.3683
63.000000	78.414	-2.0321
64.000000	78.366	-2.8413
65.000000	78.319	-3.6225
66.000000	78.271	-4.3742
67.000000	78.221	-5.0969
68.000000	78.168	-5.7891
69.000000	78.113	-6.4530
70.000000	78.056	-7.0926
71.000000	77.999	-7.7107
72.000000	77.944	-8.3119
73.000000	77.892	-8.8996
74.000000	77.841	-9.4750
75.000000	77.789	-10.0407
76.199997	77.723	-10.7015
77.500000	77.657	-11.4051
78.800003	77.596	-12.1038
80.000000	77.538	-12.7324
81.199997	77.477	-13.3555
82.500000	77.415	-14.0221
83.800003	77.351	-14.6591
85.000000	77.287	-15.2127
86.199997	77.221	-15.7514
87.500000	77.150	-16.3404
88.500000	77.095	-16.7878
90.000000	77.012	-17.4330
91.199997	76.947	-17.9348
92.500000	76.876	-18.4645
93.800003	76.805	-18.9769
95.000000	76.736	-19.4272
96.199997	76.665	-19.8555
97.500000	76.589	-20.3057
98.800003	76.516	-20.7452
100.000000	76.455	-21.1402
101.500000	76.380	-21.6079
103.000000	76.309	-22.0281
104.400002	76.248	-22.3871
106.000000	76.175	-22.7989
107.500000	76.095	-23.2294
109.000000	76.012	-23.6580
110.599998	75.928	-24.0500
112.000000	75.857	-24.3655
113.800003	75.769	-24.7980
115.000000	75.708	-25.1001
117.199997	75.587	-25.6540
118.000000	75.544	-25.8445
120.599998	75.409	-26.3854
122.000000	75.338	-26.6516
124.099998	75.233	-27.0570
125.000000	75.188	-27.2348
126.500000	75.112	-27.5293
128.000000	75.037	-27.8135
131.500000	74.866	-28.4275
132.000000	74.841	-28.5086
134.000000	74.745	-28.8130
136.000000	74.650	-29.0918
138.000000	74.553	-29.3579
140.000000	74.455	-29.6199
143.000000	74.308	-30.0025
145.000000	74.211	-30.2435
147.500000	74.088	-30.5197
150.000000	73.965	-30.7488
152.500000	73.843	-30.9300
155.000000	73.720	-31.0781
157.500000	73.594	-31.1936
160.000000	73.464	-31.2708
162.500000	73.333	-31.3017
165.000000	73.200	-31.2711
167.500000	73.062	-31.1549
170.000000	72.921	-30.9241
172.500000	72.780	-30.5342
175.000000	72.641	-29.9251
177.500000	72.516	-29.0311
180.000000	72.430	-27.8379
182.500000	72.407	-26.4820
185.000000	72.456	-25.2304
187.500000	72.563	-24.3365
190.000000	72.696	-24.0177
192.500000	72.816	-24.3856
195.000000	72.900	-25.2566
197.500000	72.938	-26.2795
200.000000	72.936	-27.2398
203.000000	72.901	-28.1963
206.000000	72.849	-28.9026
209.000000	72.789	-29.3819
212.000000	72.723	-29.6883
214.000000	72.676	-29.8577
218.000000	72.581	-30.2009
220.000000	72.531	-30.3574
224.000000	72.419	-30.6011
227.000000	72.325	-30.7158
230.000000	72.229	-30.8281
233.000000	72.136	-31.0020
236.000000	72.048	-31.1748
240.000000	71.936	-31.3434
243.000000	71.854	-31.4415
247.000000	71.749	-31.5321
250.000000	71.674	-31.5693
254.000000	71.579	-31.5900
258.000000	71.486	-31.5935
262.000000	71.395	-31.5851
265.000000	71.327	-31.5678
269.000000	71.241	-31.5257
272.000000	71.178	-31.4791
276.000000	71.097	-31.4024
280.000000	71.018	-31.3201
285.000000	70.919	-31.2220
290.000000	70.820	-31.1281
295.000000	70.721	-31.0282
300.000000	70.624	-30.9135
304.000000	70.548	-30.8144
307.000000	70.493	-30.7267
311.000000	70.422	-30.5803
315.000000	70.353	-30.4084
320.000000	70.271	-30.1845
325.000000	70.192	-29.9673
330.000000	70.114	-29.7649
335.000000	70.039	-29.5834
340.000000	69.972	-29.4175
345.000000	69.905	-29.2387
350.000000	69.836	-29.0197
355.000000	69.770	-28.7755
360.000000	69.720	-28.5365
365.000000	69.686	-28.3266
370.000000	69.661	-28.1715
375.000000	69.637	-28.0875
382.000000	69.596	-28.0782
387.000000	69.564	-28.1300
395.000000	69.505	-28.2834
400.000000	69.464	-28.4030
406.000000	69.408	-28.5521
412.000000	69.348	-28.7006
418.000000	69.286	-28.8343
425.000000	69.218	-28.9514
431.000000	69.164	-29.0176
437.000000	69.113	-29.0563
444.000000	69.053	-29.0691
450.000000	69.004	-29.0560
455.000000	68.965	-29.0294
462.000000	68.915	-28.9670
468.000000	68.875	-28.8904
475.000000	68.835	-28.7773
482.000000	68.797	-28.6551
487.000000	68.770	-28.5783
494.000000	68.728	-28.5007
500.000000	68.691	-28.4578
508.000000	68.642	-28.4154
515.000000	68.604	-28.3803
522.000000	68.569	-28.3376
530.000000	68.533	-28.2633
538.000000	68.497	-28.1504
545.000000	68.466	-28.0270
552.000000	68.439	-27.9059
560.000000	68.415	-27.8028
570.000000	68.387	-27.7395
580.000000	68.352	-27.7330
590.000000	68.315	-27.7798
600.000000	68.281	-27.8907
608.000000	68.256	-28.0027
615.000000	68.234	-28.0956
622.000000	68.212	-28.1855
630.000000	68.189	-28.2943
640.000000	68.165	-28.4288
650.000000	68.147	-28.5408
660.000000	68.134	-28.6322
670.000000	68.126	-28.7005
680.000000	68.121	-28.7360
690.000000	68.116	-28.7500
700.000000	68.112	-28.7497
710.000000	68.109	-28.7252
720.000000	68.107	-28.6653
730.000000	68.110	-28.5570
740.000000	68.119	-28.3819
750.000000	68.135	-28.1443
762.000000	68.161	-27.8403
775.000000	68.191	-27.6205
788.000000	68.201	-27.6652
800.000000	68.164	-27.9487
812.000000	68.067	-28.1883
825.000000	67.937	-27.9342
838.000000	67.872	-27.1719
850.000000	67.907	-26.4849
862.000000	68.003	-26.1604
875.000000	68.124	-26.2033
885.000000	68.210	-26.3874
900.000000	68.324	-26.7126
912.000000	68.407	-26.9545
925.000000	68.494	-27.2021
938.000000	68.578	-27.4498
950.000000	68.652	-27.6969
962.000000	68.723	-27.9722
975.000000	68.803	-28.2818
988.000000	68.886	-28.5795
1000.000000	68.966	-28.8402
1015.000000	69.064	-29.1375
1030.000000	69.162	-29.4037
1044.000000	69.257	-29.6447
1060.000000	69.369	-29.9409
1075.000000	69.472	-30.2754
1090.000000	69.570	-30.7112
1106.000000	69.669	-31.3069
1120.000000	69.754	-31.9121
1138.000000	69.864	-32.7407
1150.000000	69.940	-33.3081
1172.000000	70.084	-34.3980
1180.000000	70.136	-34.8164
1206.000000	70.298	-36.2515
1220.000000	70.391	-37.0304
1241.000000	70.543	-38.1186
1250.000000	70.612	-38.5501
1265.000000	70.732	-39.2315
1280.000000	70.853	-39.8757
1315.000000	71.108	-41.2798
1320.000000	71.137	-41.4711
1340.000000	71.223	-42.2166
1360.000000	71.259	-42.9453
1380.000000	71.259	-43.6737
1400.000000	71.242	-44.4144
1430.000000	71.231	-45.4858
1450.000000	71.254	-46.0787
1475.000000	71.319	-46.5815
1500.000000	71.415	-46.7911
1525.000000	71.528	-46.7654
1550.000000	71.645	-46.5643
1575.000000	71.762	-46.2219
1600.000000	71.882	-45.7838
1625.000000	72.002	-45.3685
1650.000000	72.113	-45.0772
1675.000000	72.217	-44.8874
1700.000000	72.326	-44.7201
1725.000000	72.441	-44.5501
1750.000000	72.555	-44.4518
1775.000000	72.664	-44.4966
1800.000000	72.767	-44.6666
1825.000000	72.869	-44.8301
1850.000000	72.980	-44.8302
1875.000000	73.101	-44.5944
1900.000000	73.228	-44.1688
1925.000000	73.355	-43.6543
1950.000000	73.480	-43.1094
1975.000000	73.606	-42.5335
2000.000000	73.735	-41.9021
2030.000000	73.897	-41.0490
2060.000000	74.066	-40.1505
2090.000000	74.239	-39.3460
2120.000000	74.407	-38.7644
2140.000000	74.516	-38.5182
2180.000000	74.733	-38.2714
2200.000000	74.844	-38.2071
2240.000000	75.072	-38.0956
2270.000000	75.247	-38.0321
2300.000000	75.423	-38.0403
2330.000000	75.596	-38.1563
2360.000000	75.766	-38.3529
2400.000000	75.999	-38.6741
2430.000000	76.177	-39.0145
2470.000000	76.404	-39.7604
2500.000000	76.567	-40.5346
2540.000000	76.783	-41.6977
2580.000000	76.996	-42.8920
2620.000000	77.201	-44.0544
2650.000000	77.352	-44.8620
2690.000000	77.550	-45.8419
2720.000000	77.694	-46.5567
2760.000000	77.876	-47.6151
2800.000000	78.032	-48.9395
2850.000000	78.164	-50.9633
2900.000000	78.230	-52.7529
2950.000000	78.354	-53.7706
3000.000000	78.581	-55.0201
3040.000000	78.748	-56.5014
3070.000000	78.844	-57.7301
3110.000000	78.941	-59.3161
3150.000000	79.015	-60.6804
3200.000000	79.081	-61.9586
3250.000000	79.128	-62.7435
3300.000000	79.152	-63.1620
3350.000000	79.147	-63.3838
3400.000000	79.118	-63.4865
3450.000000	79.064	-63.5512
3500.000000	78.987	-63.6987
3550.000000	78.886	-63.9914
3600.000000	78.768	-64.3438
3650.000000	78.645	-64.6165
3700.000000	78.523	-64.8037
3750.000000	78.398	-64.9941
3820.000000	78.219	-65.1927
3870.000000	78.097	-65.0523
3950.000000	77.922	-64.1122
4000.000000	77.817	-63.2546
4060.000000	77.684	-62.2462
4120.000000	77.531	-61.4168
4180.000000	77.351	-60.7283
4250.000000	77.119	-59.8765
4310.000000	76.908	-58.9808
4370.000000	76.697	-57.9492
4440.000000	76.459	-56.7138
4500.000000	76.269	-55.7337
4550.000000	76.121	-54.9728
4620.000000	75.930	-53.8655
4680.000000	75.780	-52.7806
4750.000000	75.616	-51.3475
4820.000000	75.461	-49.7659
4870.000000	75.353	-48.5763
4940.000000	75.203	-46.8418
5000.000000	75.078	-45.2402
5080.000000	74.917	-42.8956
5150.000000	74.781	-40.7096
5220.000000	74.647	-38.4798
5300.000000	74.496	-35.9803
5380.000000	74.343	-33.6055
5450.000000	74.210	-31.6064
5520.000000	74.082	-29.6448
5600.000000	73.947	-27.4633
5700.000000	73.795	-24.8489
5800.000000	73.665	-22.2234
5900.000000	73.567	-19.4498
6000.000000	73.497	-16.6332
6080.000000	73.450	-14.5687
6150.000000	73.412	-13.0195
6220.000000	73.378	-11.8096
6300.000000	73.338	-11.0341
6400.000000	73.282	-11.0231
6500.000000	73.231	-11.4865
6600.000000	73.195	-11.7193
6700.000000	73.172	-11.3659
6800.000000	73.170	-10.2973
6900.000000	73.189	-8.6349
7000.000000	73.232	-6.6056
7100.000000	73.302	-4.3719
7200.000000	73.409	-2.0087
7300.000000	73.555	0.4604
7400.000000	73.739	2.8447
7500.000000	73.954	4.7345
7620.000000	74.243	6.0237
7750.000000	74.568	6.3321
7880.000000	74.852	5.3858
8000.000000	75.045	3.2202
8120.000000	75.179	0.0821
8250.000000	75.281	-3.9757
8380.000000	75.353	-8.5120
8500.000000	75.387	-13.0198
8620.000000	75.373	-17.3967
8750.000000	75.290	-21.3881
8850.000000	75.160	-23.8706
9000.000000	74.818	-26.7210
9120.000000	74.411	-28.1606
9250.000000	73.858	-28.5718
9380.000000	73.235	-27.3427
9500.000000	72.636	-24.7821
9620.000000	72.038	-21.5071
9750.000000	71.409	-18.0277
9880.000000	70.814	-15.1190
10000.000000	70.309	-12.7046
10150.000000	69.762	-9.0712
10300.000000	69.321	-4.2865
10440.000000	68.994	0.4617
10600.000000	68.708	5.1261
10750.000000	68.534	8.7052
10900.000000	68.458	12.0461
11060.000000	68.497	15.9804
11200.000000	68.634	19.9865
11380.000000	68.944	25.6887
11500.000000	69.226	29.4915
11720.000000	69.891	35.5764
11800.000000	70.170	37.2673
12060.000000	71.117	40.4874
12200.000000	71.589	41.1539
12410.000000	72.132	41.3256
12500.000000	72.273	41.1310
12650.000000	72.350	40.5238
12800.000000	72.209	39.9051
13150.000000	71.037	41.9658
13200.000000	70.788	42.9067
13400.000000	69.656	48.2672
13600.000000	68.438	55.3740
13800.000000	67.295	62.9826
14000.000000	66.323	70.4676
14300.000000	65.216	80.7394
14500.000000	64.671	86.3119
14750.000000	64.124	91.8199
15000.000000	63.628	96.7553
15250.000000	63.054	101.5821
15500.000000	62.297	106.9060
15750.000000	61.329	113.9792
16000.000000	60.216	123.8496
16250.000000	59.070	137.0112
16500.000000	57.987	153.2411
16750.000000	57.019	171.5973
17000.000000	56.191	-169.6420
17250.000000	55.508	-152.2979
17500.000000	54.981	-136.9747
17750.000000	54.639	-123.3196
18000.000000	54.495	-111.4062
18250.000000	54.527	-101.6190
18500.000000	54.665	-93.7270
18750.000000	54.841	-86.8891
19000.000000	55.014	-80.1268
19250.000000	55.163	-72.7140
19500.000000	55.271	-64.5013
19750.000000	55.335	-56.4815
20000.000000	55.365	-51.3479
