* Measurement data measured by REW V5.31.3
* Source: Microphone (6- USB Sound Device        ), MICROPHONE (Master Volume), L, volume: 0.700
* Format: 256k Log Swept Sine, 1 sweep at -12.0 dBFS with no timing reference
* Dated: 23-May-2025 16:26:54
* REW Settings:
*  C-weighting compensation: Off
*  Target level: 75.0 dB
* Note: 
* Measurement: KZ Saga BI L
* Smoothing: 1/12 octave
* Frequency Step: 1/48 octave
* Start Frequency: 20.300 Hz
*
* Freq(Hz)	SPL(dB)	Phase(degrees)
20.299999	72.796	-156.3041
20.600000	72.758	-156.8724
20.900000	72.709	-157.5964
21.200001	72.657	-158.3844
21.400000	72.622	-158.9256
21.799999	72.554	-160.0226
22.000000	72.523	-160.5712
22.400000	72.464	-161.6550
22.700001	72.424	-162.4476
23.000000	72.388	-163.2187
23.299999	72.354	-163.9674
23.600000	72.323	-164.6945
24.000000	72.282	-165.6336
24.299999	72.251	-166.3167
24.700001	72.209	-167.2007
25.000000	72.178	-167.8442
25.400000	72.136	-168.6775
25.799999	72.094	-169.4846
26.200001	72.053	-170.2683
26.500000	72.021	-170.8424
26.900000	71.980	-171.5920
27.200001	71.948	-172.1440
27.600000	71.907	-172.8683
28.000000	71.866	-173.5812
28.500000	71.816	-174.4568
29.000000	71.766	-175.3133
29.500000	71.718	-176.1473
30.000000	71.671	-176.9564
30.400000	71.633	-177.5856
30.700001	71.605	-178.0476
31.100000	71.567	-178.6517
31.500000	71.529	-179.2443
32.000000	71.482	-179.9720
32.500000	71.435	179.3120
33.000000	71.389	178.6077
33.500000	71.344	177.9180
34.000000	71.299	177.2460
34.500000	71.255	176.5935
35.000000	71.211	175.9597
35.500000	71.167	175.3420
36.000000	71.122	174.7369
36.500000	71.078	174.1415
37.000000	71.035	173.5547
37.500000	70.991	172.9778
38.200001	70.929	172.1917
38.700001	70.883	171.6490
39.500000	70.809	170.8141
40.000000	70.764	170.3101
40.599998	70.710	169.7184
41.200001	70.659	169.1362
41.799999	70.611	168.5618
42.500000	70.555	167.9044
43.099998	70.507	167.3550
43.700001	70.458	166.8197
44.400002	70.401	166.2115
45.000000	70.352	165.7028
45.500000	70.310	165.2869
46.200001	70.252	164.7165
46.799999	70.202	164.2393
47.500000	70.147	163.6968
48.200001	70.096	163.1699
48.700001	70.063	162.8029
49.400002	70.018	162.3022
50.000000	69.975	161.8846
50.799999	69.909	161.3405
51.500000	69.845	160.8745
52.200001	69.781	160.4191
53.000000	69.711	159.9134
53.799999	69.644	159.4217
54.500000	69.587	159.0012
55.200001	69.531	158.5901
56.000000	69.467	158.1329
57.000000	69.389	157.5784
58.000000	69.310	157.0406
59.000000	69.231	156.5226
60.000000	69.153	156.0276
60.799999	69.092	155.6462
61.500000	69.039	155.3204
62.200001	68.986	155.0011
63.000000	68.926	154.6442
64.000000	68.853	154.2107
65.000000	68.780	153.7914
66.000000	68.708	153.3854
67.000000	68.636	152.9915
68.000000	68.564	152.6088
69.000000	68.491	152.2365
70.000000	68.416	151.8747
71.000000	68.343	151.5232
72.000000	68.273	151.1811
73.000000	68.204	150.8479
74.000000	68.137	150.5248
75.000000	68.070	150.2139
76.199997	67.989	149.8585
77.500000	67.900	149.4919
78.800003	67.812	149.1410
80.000000	67.732	148.8302
81.199997	67.651	148.5324
82.500000	67.565	148.2262
83.800003	67.480	147.9363
85.000000	67.403	147.6793
86.199997	67.326	147.4302
87.500000	67.241	147.1728
88.500000	67.175	146.9863
90.000000	67.078	146.7271
91.199997	67.001	146.5377
92.500000	66.920	146.3527
93.800003	66.842	146.1913
95.000000	66.773	146.0626
96.199997	66.706	145.9461
97.500000	66.637	145.8193
98.800003	66.571	145.6764
100.000000	66.513	145.5221
101.500000	66.443	145.3008
103.000000	66.373	145.0623
104.400002	66.304	144.8394
106.000000	66.221	144.5977
107.500000	66.139	144.3909
109.000000	66.056	144.2050
110.599998	65.967	144.0289
112.000000	65.890	143.8922
113.800003	65.792	143.7374
115.000000	65.727	143.6464
117.199997	65.610	143.5010
118.000000	65.569	143.4528
120.599998	65.439	143.3017
122.000000	65.371	143.2200
124.099998	65.269	143.0963
125.000000	65.225	143.0442
126.500000	65.152	142.9608
128.000000	65.078	142.8845
131.500000	64.905	142.7470
132.000000	64.881	142.7325
134.000000	64.783	142.6852
136.000000	64.685	142.6490
138.000000	64.586	142.6226
140.000000	64.486	142.6099
143.000000	64.336	142.6265
145.000000	64.239	142.6612
147.500000	64.118	142.7256
150.000000	64.001	142.8188
152.500000	63.888	142.9474
155.000000	63.779	143.1147
157.500000	63.671	143.3228
160.000000	63.568	143.5770
162.500000	63.475	143.8781
165.000000	63.395	144.2003
167.500000	63.323	144.4994
170.000000	63.255	144.7610
172.500000	63.189	144.9908
175.000000	63.120	145.2028
177.500000	63.042	145.4288
180.000000	62.949	145.7146
182.500000	62.843	146.1125
185.000000	62.731	146.6660
187.500000	62.628	147.3800
190.000000	62.556	148.1926
192.500000	62.532	148.9830
195.000000	62.557	149.6055
197.500000	62.620	149.9473
200.000000	62.695	149.9814
203.000000	62.776	149.7071
206.000000	62.830	149.2491
209.000000	62.852	148.7430
212.000000	62.841	148.2715
214.000000	62.817	148.0001
218.000000	62.738	147.5815
220.000000	62.688	147.4324
224.000000	62.577	147.2380
227.000000	62.490	147.1671
230.000000	62.402	147.1469
233.000000	62.315	147.1690
236.000000	62.230	147.2256
240.000000	62.121	147.3445
243.000000	62.040	147.4617
247.000000	61.934	147.6513
250.000000	61.857	147.8144
254.000000	61.761	148.0503
258.000000	61.671	148.2968
262.000000	61.586	148.5469
265.000000	61.525	148.7329
269.000000	61.448	148.9738
272.000000	61.390	149.1492
276.000000	61.313	149.3815
280.000000	61.236	149.6188
285.000000	61.141	149.9294
290.000000	61.046	150.2595
295.000000	60.952	150.6086
300.000000	60.859	150.9742
304.000000	60.784	151.2778
307.000000	60.729	151.5122
311.000000	60.656	151.8329
315.000000	60.585	152.1635
320.000000	60.497	152.5936
325.000000	60.413	153.0438
330.000000	60.334	153.5118
335.000000	60.259	153.9973
340.000000	60.190	154.5032
345.000000	60.125	155.0337
350.000000	60.061	155.5895
355.000000	59.996	156.1696
360.000000	59.939	156.7704
365.000000	59.894	157.3850
370.000000	59.860	157.9978
375.000000	59.839	158.5814
382.000000	59.826	159.2839
387.000000	59.823	159.6707
395.000000	59.813	160.1027
400.000000	59.795	160.3018
406.000000	59.759	160.5261
412.000000	59.711	160.7723
418.000000	59.655	161.0599
425.000000	59.585	161.4512
431.000000	59.526	161.8249
437.000000	59.466	162.2232
444.000000	59.397	162.7141
450.000000	59.341	163.1567
455.000000	59.299	163.5388
462.000000	59.244	164.0892
468.000000	59.201	164.5699
475.000000	59.156	165.1315
482.000000	59.113	165.6853
487.000000	59.083	166.0740
494.000000	59.041	166.6081
500.000000	59.006	167.0573
508.000000	58.963	167.6502
515.000000	58.926	168.1710
522.000000	58.890	168.6957
530.000000	58.848	169.2988
538.000000	58.807	169.9063
545.000000	58.771	170.4417
552.000000	58.738	170.9801
560.000000	58.703	171.6013
570.000000	58.664	172.3874
580.000000	58.627	173.1776
590.000000	58.592	173.9673
600.000000	58.560	174.7572
608.000000	58.536	175.3890
615.000000	58.516	175.9420
622.000000	58.497	176.4954
630.000000	58.478	177.1288
640.000000	58.456	177.9227
650.000000	58.440	178.7170
660.000000	58.427	179.5091
670.000000	58.418	-179.7007
680.000000	58.410	-178.9108
690.000000	58.403	-178.1229
700.000000	58.398	-177.3389
710.000000	58.396	-176.5599
720.000000	58.396	-175.7875
730.000000	58.398	-175.0221
740.000000	58.402	-174.2622
750.000000	58.407	-173.5048
762.000000	58.413	-172.5954
775.000000	58.418	-171.6077
788.000000	58.424	-170.6181
800.000000	58.431	-169.7031
812.000000	58.437	-168.7813
825.000000	58.441	-167.7499
838.000000	58.443	-166.6373
850.000000	58.453	-165.4976
862.000000	58.482	-164.2584
875.000000	58.547	-162.9037
885.000000	58.616	-161.9371
900.000000	58.731	-160.6615
912.000000	58.825	-159.7608
925.000000	58.927	-158.8770
938.000000	59.032	-158.0885
950.000000	59.128	-157.4435
962.000000	59.219	-156.8604
975.000000	59.312	-156.2694
988.000000	59.400	-155.6969
1000.000000	59.479	-155.1770
1015.000000	59.575	-154.5392
1030.000000	59.671	-153.9195
1044.000000	59.761	-153.3647
1060.000000	59.867	-152.7682
1075.000000	59.965	-152.2492
1090.000000	60.062	-151.7649
1106.000000	60.163	-151.2806
1120.000000	60.250	-150.8821
1138.000000	60.362	-150.4026
1150.000000	60.437	-150.1017
1172.000000	60.573	-149.5849
1180.000000	60.622	-149.4064
1206.000000	60.789	-148.8534
1220.000000	60.883	-148.5724
1241.000000	61.034	-148.1719
1250.000000	61.102	-148.0068
1265.000000	61.221	-147.7388
1280.000000	61.343	-147.4777
1315.000000	61.600	-146.8735
1320.000000	61.629	-146.7865
1340.000000	61.717	-146.4357
1360.000000	61.756	-146.0792
1380.000000	61.759	-145.7209
1400.000000	61.750	-145.3663
1430.000000	61.755	-144.8438
1450.000000	61.787	-144.5022
1475.000000	61.857	-144.0777
1500.000000	61.950	-143.6494
1525.000000	62.058	-143.2159
1550.000000	62.174	-142.7750
1575.000000	62.291	-142.3300
1600.000000	62.408	-141.8848
1625.000000	62.524	-141.4398
1650.000000	62.641	-140.9983
1675.000000	62.756	-140.5652
1700.000000	62.871	-140.1411
1725.000000	62.985	-139.7250
1750.000000	63.098	-139.3163
1775.000000	63.211	-138.9137
1800.000000	63.323	-138.5147
1825.000000	63.437	-138.1190
1850.000000	63.553	-137.7279
1875.000000	63.671	-137.3421
1900.000000	63.791	-136.9642
1925.000000	63.914	-136.5969
1950.000000	64.040	-136.2427
1975.000000	64.169	-135.9053
2000.000000	64.301	-135.5905
2030.000000	64.464	-135.2511
2060.000000	64.632	-134.9610
2090.000000	64.802	-134.7229
2120.000000	64.974	-134.5341
2140.000000	65.089	-134.4340
2180.000000	65.320	-134.2922
2200.000000	65.436	-134.2498
2240.000000	65.669	-134.2241
2270.000000	65.845	-134.2613
2300.000000	66.020	-134.3491
2330.000000	66.195	-134.4876
2360.000000	66.367	-134.6753
2400.000000	66.592	-134.9965
2430.000000	66.757	-135.2882
2470.000000	66.974	-135.7435
2500.000000	67.134	-136.1336
2540.000000	67.341	-136.7190
2580.000000	67.543	-137.3812
2620.000000	67.739	-138.1205
2650.000000	67.881	-138.7244
2690.000000	68.061	-139.5921
2720.000000	68.190	-140.2873
2760.000000	68.354	-141.2696
2800.000000	68.508	-142.3093
2850.000000	68.688	-143.6800
2900.000000	68.850	-145.1175
2950.000000	68.992	-146.6099
3000.000000	69.113	-148.1438
3040.000000	69.195	-149.3918
3070.000000	69.247	-150.3357
3110.000000	69.307	-151.5994
3150.000000	69.356	-152.8627
3200.000000	69.402	-154.4323
3250.000000	69.430	-155.9788
3300.000000	69.441	-157.4890
3350.000000	69.433	-158.9500
3400.000000	69.405	-160.3484
3450.000000	69.360	-161.6742
3500.000000	69.299	-162.9200
3550.000000	69.225	-164.0822
3600.000000	69.144	-165.1623
3650.000000	69.062	-166.1642
3700.000000	68.982	-167.0925
3750.000000	68.908	-167.9496
3820.000000	68.810	-169.0314
3870.000000	68.742	-169.7168
3950.000000	68.630	-170.6447
4000.000000	68.555	-171.1098
4060.000000	68.460	-171.5519
4120.000000	68.360	-171.8917
4180.000000	68.255	-172.1759
4250.000000	68.128	-172.4919
4310.000000	68.015	-172.7608
4370.000000	67.903	-173.0167
4440.000000	67.783	-173.2807
4500.000000	67.696	-173.4689
4550.000000	67.636	-173.5983
4620.000000	67.571	-173.7390
4680.000000	67.528	-173.8257
4750.000000	67.487	-173.8960
4820.000000	67.453	-173.9463
4870.000000	67.433	-173.9792
4940.000000	67.409	-174.0369
5000.000000	67.394	-174.1141
5080.000000	67.380	-174.2871
5150.000000	67.370	-174.5334
5220.000000	67.359	-174.8964
5300.000000	67.339	-175.4805
5380.000000	67.298	-176.2571
5450.000000	67.236	-177.0789
5520.000000	67.145	-177.9930
5600.000000	67.003	-179.0715
5700.000000	66.764	179.6994
5800.000000	66.468	178.8156
5900.000000	66.144	178.4400
6000.000000	65.822	178.6311
6080.000000	65.577	179.1668
6150.000000	65.376	179.8700
6220.000000	65.192	-179.2527
6300.000000	65.007	-178.0927
6400.000000	64.817	-176.4921
6500.000000	64.680	-174.8114
6600.000000	64.595	-173.1250
6700.000000	64.563	-171.4927
6800.000000	64.584	-169.9638
6900.000000	64.655	-168.5806
7000.000000	64.773	-167.3823
7100.000000	64.937	-166.4143
7200.000000	65.151	-165.7296
7300.000000	65.410	-165.3820
7400.000000	65.708	-165.4159
7500.000000	66.037	-165.8644
7620.000000	66.450	-166.9836
7750.000000	66.860	-168.9310
7880.000000	67.153	-171.6219
8000.000000	67.270	-174.6820
8120.000000	67.226	-178.1525
8250.000000	67.006	177.8433
8380.000000	66.633	173.8614
8500.000000	66.183	170.4649
8620.000000	65.657	167.5509
8750.000000	65.031	165.1069
8850.000000	64.527	163.7863
9000.000000	63.760	162.7122
9120.000000	63.159	162.5664
9250.000000	62.540	163.0033
9380.000000	61.971	163.9150
9500.000000	61.507	165.0397
9620.000000	61.109	166.3012
9750.000000	60.747	167.6711
9880.000000	60.439	168.9087
10000.000000	60.172	169.8882
10150.000000	59.807	171.0919
10300.000000	59.369	172.9802
10440.000000	58.963	176.2783
10600.000000	58.763	-178.0566
10750.000000	59.022	-172.6305
10900.000000	59.645	-169.0188
11060.000000	60.482	-167.9106
11200.000000	61.200	-169.0936
11380.000000	61.958	-172.9465
11500.000000	62.320	-176.5330
11720.000000	62.696	175.7297
11800.000000	62.752	172.6717
12060.000000	62.604	161.9280
12200.000000	62.255	155.8525
12410.000000	61.302	147.4207
12500.000000	60.749	144.4222
12650.000000	59.686	140.5895
12800.000000	58.511	138.3401
13150.000000	55.639	138.5467
13200.000000	55.231	139.0629
13400.000000	53.630	142.0011
13600.000000	52.132	146.0356
13800.000000	50.817	150.9163
14000.000000	49.747	156.4501
14300.000000	48.642	165.0646
14500.000000	48.167	170.6164
14750.000000	47.774	177.4412
15000.000000	47.558	-175.8392
15250.000000	47.497	-169.3846
15500.000000	47.600	-163.6600
15750.000000	47.928	-159.5505
16000.000000	48.488	-158.1732
16250.000000	49.098	-160.0463
16500.000000	49.495	-164.4453
16750.000000	49.535	-169.9221
17000.000000	49.227	-175.2219
17250.000000	48.641	-179.7068
17500.000000	47.835	176.8395
17750.000000	46.852	174.5624
18000.000000	45.741	173.6123
18250.000000	44.547	174.0810
18500.000000	43.295	176.0187
18750.000000	41.988	179.5290
19000.000000	40.637	-175.1446
19250.000000	39.273	-167.6506
19500.000000	37.967	-157.9150
19750.000000	36.877	-147.3643
20000.000000	36.254	-140.2049
