* Measurement data measured by REW V5.31.3
* Source: Microphone (USB Sound Device        ), MICROPHONE (Master Volume), L, volume: 0.700
* Format: 256k Log Swept Sine, 1 sweep at -12.0 dBFS with no timing reference
* Dated: 29-Jan-2025 18:13:29
* REW Settings:
*  C-weighting compensation: Off
*  Target level: 75.0 dB
* Note: 
* Measurement: KZ Zenith +3 L
* Smoothing: 1/12 octave
* Frequency Step: 1/48 octave
* Start Frequency: 20.300 Hz
*
* Freq(Hz)	SPL(dB)	Phase(degrees)
20.299999	71.449	-169.0717
20.600000	71.451	-169.5192
20.900000	71.452	-170.0771
21.200001	71.453	-170.6707
21.400000	71.453	-171.0720
21.799999	71.454	-171.8741
22.000000	71.454	-172.2712
22.400000	71.456	-173.0505
22.700001	71.456	-173.6173
23.000000	71.456	-174.1673
23.299999	71.456	-174.7014
23.600000	71.454	-175.2219
24.000000	71.449	-175.8992
24.299999	71.442	-176.3974
24.700001	71.432	-177.0521
25.000000	71.423	-177.5378
25.400000	71.413	-178.1796
25.799999	71.401	-178.8136
26.200001	71.389	-179.4340
26.500000	71.378	-179.8860
26.900000	71.362	179.5324
27.200001	71.349	179.1106
27.600000	71.332	178.5609
28.000000	71.314	178.0182
28.500000	71.290	177.3470
29.000000	71.261	176.6935
29.500000	71.232	176.0663
30.000000	71.206	175.4561
30.400000	71.185	174.9685
30.700001	71.168	174.6009
31.100000	71.144	174.1130
31.500000	71.118	173.6371
32.000000	71.086	173.0679
32.500000	71.056	172.5200
33.000000	71.028	171.9778
33.500000	70.999	171.4395
34.000000	70.967	170.9193
34.500000	70.934	170.4285
35.000000	70.901	169.9595
35.500000	70.869	169.4952
36.000000	70.835	169.0284
36.500000	70.800	168.5671
37.000000	70.765	168.1214
37.500000	70.731	167.6914
38.200001	70.684	167.1008
38.700001	70.649	166.6827
39.500000	70.591	166.0343
40.000000	70.555	165.6460
40.599998	70.512	165.1905
41.200001	70.471	164.7403
41.799999	70.430	164.2996
42.500000	70.382	163.8078
43.099998	70.341	163.4051
43.700001	70.300	163.0090
44.400002	70.254	162.5421
45.000000	70.213	162.1381
45.500000	70.177	161.8063
46.200001	70.125	161.3648
46.799999	70.081	161.0136
47.500000	70.033	160.6274
48.200001	69.991	160.2492
48.700001	69.963	159.9774
49.400002	69.923	159.5954
50.000000	69.883	159.2734
50.799999	69.817	158.8658
51.500000	69.753	158.5375
52.200001	69.691	158.2345
53.000000	69.626	157.9059
53.799999	69.567	157.5779
54.500000	69.518	157.2818
55.200001	69.469	156.9774
56.000000	69.412	156.6270
57.000000	69.336	156.2014
58.000000	69.259	155.8063
59.000000	69.183	155.4476
60.000000	69.108	155.1153
60.799999	69.051	154.8589
61.500000	69.002	154.6385
62.200001	68.954	154.4227
63.000000	68.901	154.1847
64.000000	68.836	153.9029
65.000000	68.770	153.6360
66.000000	68.703	153.3780
67.000000	68.635	153.1247
68.000000	68.566	152.8757
69.000000	68.495	152.6337
70.000000	68.425	152.4025
71.000000	68.357	152.1841
72.000000	68.292	151.9780
73.000000	68.230	151.7831
74.000000	68.168	151.5987
75.000000	68.107	151.4248
76.199997	68.032	151.2305
77.500000	67.950	151.0428
78.800003	67.866	150.8868
80.000000	67.789	150.7726
81.199997	67.713	150.6831
82.500000	67.634	150.6029
83.800003	67.562	150.5289
85.000000	67.502	150.4674
86.199997	67.446	150.4185
87.500000	67.385	150.3766
88.500000	67.338	150.3408
90.000000	67.268	150.2578
91.199997	67.215	150.1599
92.500000	67.159	150.0334
93.800003	67.103	149.8978
95.000000	67.049	149.7667
96.199997	66.991	149.6320
97.500000	66.928	149.4940
98.800003	66.863	149.3773
100.000000	66.804	149.2906
101.500000	66.733	149.2046
103.000000	66.666	149.1415
104.400002	66.603	149.0997
106.000000	66.530	149.0645
107.500000	66.461	149.0410
109.000000	66.393	149.0232
110.599998	66.320	149.0058
112.000000	66.257	148.9880
113.800003	66.178	148.9611
115.000000	66.126	148.9431
117.199997	66.032	148.9120
118.000000	65.998	148.9016
120.599998	65.893	148.8814
122.000000	65.838	148.8832
124.099998	65.758	148.9030
125.000000	65.724	148.9174
126.500000	65.667	148.9493
128.000000	65.611	148.9896
131.500000	65.483	149.1059
132.000000	65.466	149.1247
134.000000	65.396	149.2031
136.000000	65.327	149.2820
138.000000	65.259	149.3585
140.000000	65.191	149.4358
143.000000	65.092	149.5605
145.000000	65.028	149.6527
147.500000	64.949	149.7769
150.000000	64.871	149.9087
152.500000	64.797	150.0490
155.000000	64.725	150.1961
157.500000	64.651	150.3471
160.000000	64.578	150.5016
162.500000	64.508	150.6603
165.000000	64.444	150.8235
167.500000	64.382	150.9916
170.000000	64.322	151.1628
172.500000	64.263	151.3338
175.000000	64.206	151.5066
177.500000	64.147	151.6828
180.000000	64.085	151.8639
182.500000	64.015	152.0496
185.000000	63.936	152.2355
187.500000	63.848	152.4206
190.000000	63.758	152.6074
192.500000	63.674	152.7966
195.000000	63.601	152.9871
197.500000	63.543	153.1794
200.000000	63.497	153.3759
203.000000	63.459	153.6193
206.000000	63.435	153.8688
209.000000	63.418	154.1177
212.000000	63.399	154.3638
214.000000	63.382	154.5267
218.000000	63.337	154.8513
220.000000	63.311	155.0142
224.000000	63.252	155.3419
227.000000	63.205	155.5892
230.000000	63.157	155.8352
233.000000	63.109	156.0832
236.000000	63.063	156.3357
240.000000	63.005	156.6729
243.000000	62.962	156.9252
247.000000	62.905	157.2581
250.000000	62.863	157.5015
254.000000	62.809	157.8231
258.000000	62.757	158.1551
262.000000	62.708	158.5010
265.000000	62.673	158.7639
269.000000	62.630	159.1086
272.000000	62.599	159.3585
276.000000	62.558	159.6783
280.000000	62.518	159.9884
285.000000	62.470	160.3771
290.000000	62.424	160.7810
295.000000	62.376	161.2000
300.000000	62.326	161.6207
304.000000	62.285	161.9512
307.000000	62.255	162.1944
311.000000	62.217	162.5138
315.000000	62.180	162.8323
320.000000	62.137	163.2374
325.000000	62.098	163.6488
330.000000	62.064	164.0548
335.000000	62.037	164.4429
340.000000	62.015	164.8137
345.000000	61.994	165.1776
350.000000	61.968	165.5493
355.000000	61.934	165.9368
360.000000	61.899	166.3428
365.000000	61.865	166.7603
370.000000	61.835	167.1724
375.000000	61.806	167.5645
382.000000	61.770	168.0811
387.000000	61.748	168.4400
395.000000	61.718	169.0167
400.000000	61.701	169.3836
406.000000	61.680	169.8304
412.000000	61.657	170.2790
418.000000	61.631	170.7207
425.000000	61.602	171.2239
431.000000	61.577	171.6554
437.000000	61.552	172.0942
444.000000	61.524	172.6127
450.000000	61.504	173.0634
455.000000	61.492	173.4395
462.000000	61.482	173.9509
468.000000	61.476	174.3716
475.000000	61.472	174.8564
482.000000	61.468	175.3495
487.000000	61.463	175.7093
494.000000	61.454	176.2206
500.000000	61.445	176.6606
508.000000	61.431	177.2408
515.000000	61.419	177.7401
522.000000	61.407	178.2376
530.000000	61.392	178.8011
538.000000	61.380	179.3454
545.000000	61.371	179.8080
552.000000	61.365	-179.7340
560.000000	61.361	-179.2117
570.000000	61.358	-178.5616
580.000000	61.354	-177.9181
590.000000	61.351	-177.2794
600.000000	61.347	-176.6393
608.000000	61.345	-176.1216
615.000000	61.343	-175.6632
622.000000	61.344	-175.1998
630.000000	61.347	-174.6699
640.000000	61.357	-174.0224
650.000000	61.370	-173.3934
660.000000	61.386	-172.7621
670.000000	61.402	-172.1106
680.000000	61.416	-171.4485
690.000000	61.426	-170.8020
700.000000	61.435	-170.1772
710.000000	61.443	-169.5363
720.000000	61.454	-168.8405
730.000000	61.473	-168.1119
740.000000	61.500	-167.4033
750.000000	61.532	-166.7305
762.000000	61.569	-165.9467
775.000000	61.610	-165.0964
788.000000	61.653	-164.2359
800.000000	61.698	-163.4364
812.000000	61.747	-162.6353
825.000000	61.806	-161.7715
838.000000	61.871	-160.9232
850.000000	61.936	-160.1629
862.000000	62.005	-159.4309
875.000000	62.084	-158.6713
885.000000	62.146	-158.1077
900.000000	62.240	-157.2920
912.000000	62.315	-156.6631
925.000000	62.399	-156.0025
938.000000	62.485	-155.3647
950.000000	62.567	-154.8006
962.000000	62.651	-154.2636
975.000000	62.744	-153.7133
988.000000	62.841	-153.1934
1000.000000	62.933	-152.7405
1015.000000	63.048	-152.2147
1030.000000	63.164	-151.7370
1044.000000	63.274	-151.3335
1060.000000	63.400	-150.9212
1075.000000	63.517	-150.5832
1090.000000	63.632	-150.2883
1106.000000	63.752	-150.0090
1120.000000	63.857	-149.7864
1138.000000	63.989	-149.5294
1150.000000	64.077	-149.3800
1172.000000	64.238	-149.1544
1180.000000	64.296	-149.0874
1206.000000	64.490	-148.9187
1220.000000	64.597	-148.8537
1241.000000	64.766	-148.7814
1250.000000	64.842	-148.7579
1265.000000	64.971	-148.7261
1280.000000	65.103	-148.7000
1315.000000	65.380	-148.6414
1320.000000	65.412	-148.6320
1340.000000	65.509	-148.5886
1360.000000	65.556	-148.5301
1380.000000	65.566	-148.4534
1400.000000	65.564	-148.3608
1430.000000	65.585	-148.2027
1450.000000	65.630	-148.0917
1475.000000	65.721	-147.9564
1500.000000	65.838	-147.8363
1525.000000	65.972	-147.7388
1550.000000	66.113	-147.6678
1575.000000	66.254	-147.6215
1600.000000	66.392	-147.5942
1625.000000	66.527	-147.5829
1650.000000	66.660	-147.5862
1675.000000	66.790	-147.6039
1700.000000	66.918	-147.6375
1725.000000	67.045	-147.6884
1750.000000	67.170	-147.7548
1775.000000	67.292	-147.8331
1800.000000	67.411	-147.9232
1825.000000	67.529	-148.0275
1850.000000	67.646	-148.1451
1875.000000	67.763	-148.2722
1900.000000	67.879	-148.4083
1925.000000	67.994	-148.5556
1950.000000	68.109	-148.7150
1975.000000	68.225	-148.8866
2000.000000	68.341	-149.0718
2030.000000	68.483	-149.3179
2060.000000	68.628	-149.6010
2090.000000	68.774	-149.9371
2120.000000	68.918	-150.3329
2140.000000	69.013	-150.6244
2180.000000	69.202	-151.2571
2200.000000	69.296	-151.5994
2240.000000	69.485	-152.3579
2270.000000	69.624	-153.0046
2300.000000	69.761	-153.7170
2330.000000	69.893	-154.4875
2360.000000	70.021	-155.3134
2400.000000	70.184	-156.5110
2430.000000	70.297	-157.4915
2470.000000	70.434	-158.9076
2500.000000	70.523	-160.0389
2540.000000	70.622	-161.6112
2580.000000	70.698	-163.2235
2620.000000	70.751	-164.8416
2650.000000	70.778	-166.0410
2690.000000	70.796	-167.6053
2720.000000	70.799	-168.7476
2760.000000	70.790	-170.2292
2800.000000	70.770	-171.6635
2850.000000	70.728	-173.3878
2900.000000	70.670	-175.0338
2950.000000	70.596	-176.6002
3000.000000	70.507	-178.0838
3040.000000	70.426	-179.2085
3070.000000	70.361	179.9846
3110.000000	70.269	178.9571
3150.000000	70.172	177.9845
3200.000000	70.048	176.8466
3250.000000	69.918	175.7956
3300.000000	69.782	174.8369
3350.000000	69.639	173.9741
3400.000000	69.489	173.1985
3450.000000	69.333	172.4977
3500.000000	69.171	171.8645
3550.000000	69.005	171.2958
3600.000000	68.839	170.7893
3650.000000	68.677	170.3431
3700.000000	68.523	169.9568
3750.000000	68.380	169.6293
3820.000000	68.196	169.2647
3870.000000	68.073	169.0668
3950.000000	67.882	168.8496
4000.000000	67.760	168.7723
4060.000000	67.605	168.7358
4120.000000	67.439	168.7562
4180.000000	67.260	168.8289
4250.000000	67.037	168.9773
4310.000000	66.840	169.1575
4370.000000	66.645	169.3846
4440.000000	66.430	169.7073
4500.000000	66.264	170.0326
4550.000000	66.140	170.3365
4620.000000	65.984	170.8112
4680.000000	65.863	171.2637
4750.000000	65.729	171.8434
4820.000000	65.601	172.4752
4870.000000	65.511	172.9556
4940.000000	65.388	173.6629
5000.000000	65.284	174.2957
5080.000000	65.148	175.1743
5150.000000	65.031	175.9790
5220.000000	64.915	176.8201
5300.000000	64.785	177.8239
5380.000000	64.660	178.8655
5450.000000	64.554	179.8008
5520.000000	64.456	-179.2472
5600.000000	64.358	-178.1454
5700.000000	64.259	-176.7559
5800.000000	64.184	-175.3613
5900.000000	64.140	-173.9677
6000.000000	64.120	-172.5751
6080.000000	64.114	-171.4601
6150.000000	64.111	-170.4840
6220.000000	64.109	-169.5090
6300.000000	64.108	-168.3967
6400.000000	64.115	-167.0070
6500.000000	64.136	-165.6173
6600.000000	64.178	-164.2294
6700.000000	64.248	-162.8484
6800.000000	64.353	-161.4993
6900.000000	64.494	-160.2145
7000.000000	64.673	-159.0065
7100.000000	64.896	-157.8987
7200.000000	65.176	-156.9383
7300.000000	65.517	-156.1836
7400.000000	65.922	-155.6992
7500.000000	66.395	-155.5642
7620.000000	67.037	-156.0033
7750.000000	67.770	-157.4341
7880.000000	68.456	-160.1078
8000.000000	68.983	-163.8482
8120.000000	69.359	-168.8474
8250.000000	69.553	-175.5144
8380.000000	69.489	176.9517
8500.000000	69.187	169.7930
8620.000000	68.661	163.0139
8750.000000	67.880	156.6370
8850.000000	67.168	152.6422
9000.000000	65.991	148.2698
9120.000000	65.012	146.1074
9250.000000	63.961	144.9229
9380.000000	62.953	144.7198
9500.000000	62.084	145.2145
9620.000000	61.286	146.2124
9750.000000	60.507	147.7195
9880.000000	59.816	149.5463
10000.000000	59.250	151.4308
10150.000000	58.634	153.9586
10300.000000	58.107	156.5853
10440.000000	57.686	159.0528
10600.000000	57.278	161.8187
10750.000000	56.964	164.2981
10900.000000	56.713	166.6151
11060.000000	56.509	168.8569
11200.000000	56.374	170.5891
11380.000000	56.241	172.4560
11500.000000	56.169	173.4517
11720.000000	56.060	174.7274
11800.000000	56.024	175.0129
12060.000000	55.886	175.3160
12200.000000	55.777	175.1294
12410.000000	55.542	174.5060
12500.000000	55.410	174.1512
12650.000000	55.138	173.5032
12800.000000	54.793	172.8522
13150.000000	53.639	171.7413
13200.000000	53.431	171.6639
13400.000000	52.506	171.6394
13600.000000	51.475	172.2119
13800.000000	50.407	173.7145
14000.000000	49.384	176.7714
14300.000000	48.312	-174.8183
14500.000000	48.193	-168.8035
14750.000000	48.420	-165.1727
15000.000000	48.441	-165.0538
15250.000000	48.093	-165.3956
15500.000000	47.504	-164.8961
15750.000000	46.840	-163.6524
16000.000000	46.245	-162.1806
16250.000000	45.800	-160.9083
16500.000000	45.484	-160.0157
16750.000000	45.222	-159.4559
17000.000000	44.949	-159.0623
17250.000000	44.628	-158.6731
17500.000000	44.249	-158.1850
17750.000000	43.822	-157.5600
18000.000000	43.354	-156.7972
18250.000000	42.844	-155.8839
18500.000000	42.277	-154.7791
18750.000000	41.637	-153.4584
19000.000000	40.916	-151.9820
19250.000000	40.100	-150.4996
19500.000000	39.186	-149.1556
19750.000000	38.265	-148.0539
20000.000000	37.649	-147.3860
