* Measurement data measured by REW V5.31.3
* Source: Microphone (USB Sound Device        ), MICROPHONE (Master Volume), L, volume: 0.700
* Format: 256k Log Swept Sine, 1 sweep at -12.0 dBFS with no timing reference
* Dated: 29-Jan-2025 18:10:59
* REW Settings:
*  C-weighting compensation: Off
*  Target level: 75.0 dB
* Note: 
* Measurement: KZ Zenith +1 R
* Smoothing: 1/12 octave
* Frequency Step: 1/48 octave
* Start Frequency: 20.300 Hz
*
* Freq(Hz)	SPL(dB)	Phase(degrees)
20.299999	70.412	-159.1206
20.600000	70.415	-159.5057
20.900000	70.417	-159.9868
21.200001	70.420	-160.5011
21.400000	70.421	-160.8508
21.799999	70.425	-161.5559
22.000000	70.426	-161.9082
22.400000	70.431	-162.6046
22.700001	70.435	-163.1140
23.000000	70.439	-163.6085
23.299999	70.442	-164.0873
23.600000	70.445	-164.5514
24.000000	70.447	-165.1512
24.299999	70.446	-165.5901
24.700001	70.443	-166.1647
25.000000	70.440	-166.5893
25.400000	70.436	-167.1476
25.799999	70.432	-167.6964
26.200001	70.427	-168.2335
26.500000	70.422	-168.6274
26.900000	70.414	-169.1399
27.200001	70.408	-169.5151
27.600000	70.399	-170.0053
28.000000	70.389	-170.4865
28.500000	70.376	-171.0772
29.000000	70.361	-171.6541
29.500000	70.347	-172.2138
30.000000	70.332	-172.7553
30.400000	70.320	-173.1775
30.700001	70.311	-173.4891
31.100000	70.297	-173.8991
31.500000	70.283	-174.3031
32.000000	70.265	-174.7992
32.500000	70.249	-175.2848
33.000000	70.232	-175.7595
33.500000	70.216	-176.2222
34.000000	70.199	-176.6713
34.500000	70.181	-177.1055
35.000000	70.162	-177.5266
35.500000	70.141	-177.9403
36.000000	70.121	-178.3527
36.500000	70.100	-178.7652
37.000000	70.080	-179.1721
37.500000	70.059	-179.5647
38.200001	70.028	179.9178
38.700001	70.006	179.5651
39.500000	69.971	179.0120
40.000000	69.949	178.6706
40.599998	69.922	178.2688
41.200001	69.896	177.8764
41.799999	69.873	177.4917
42.500000	69.846	177.0529
43.099998	69.821	176.6877
43.700001	69.794	176.3322
44.400002	69.763	175.9263
45.000000	69.735	175.5850
45.500000	69.712	175.3063
46.200001	69.679	174.9265
46.799999	69.650	174.6100
47.500000	69.620	174.2488
48.200001	69.594	173.8948
48.700001	69.579	173.6472
49.400002	69.558	173.3101
50.000000	69.536	173.0305
50.799999	69.497	172.6699
51.500000	69.456	172.3632
52.200001	69.415	172.0621
53.000000	69.371	171.7238
53.799999	69.330	171.3932
54.500000	69.296	171.1114
55.200001	69.263	170.8358
56.000000	69.225	170.5284
57.000000	69.178	170.1558
58.000000	69.130	169.7958
59.000000	69.083	169.4468
60.000000	69.036	169.1080
60.799999	68.999	168.8445
61.500000	68.967	168.6200
62.200001	68.936	168.4014
63.000000	68.901	168.1584
64.000000	68.857	167.8640
65.000000	68.813	167.5795
66.000000	68.768	167.3056
67.000000	68.724	167.0435
68.000000	68.677	166.7925
69.000000	68.629	166.5500
70.000000	68.579	166.3153
71.000000	68.530	166.0903
72.000000	68.482	165.8772
73.000000	68.437	165.6789
74.000000	68.394	165.4984
75.000000	68.352	165.3332
76.199997	68.303	165.1423
77.500000	68.251	164.9400
78.800003	68.200	164.7522
80.000000	68.151	164.5933
81.199997	68.103	164.4469
82.500000	68.054	164.3030
83.800003	68.010	164.1655
85.000000	67.973	164.0327
86.199997	67.936	163.8963
87.500000	67.896	163.7583
88.500000	67.868	163.6611
90.000000	67.828	163.5137
91.199997	67.800	163.3802
92.500000	67.771	163.2071
93.800003	67.740	163.0038
95.000000	67.706	162.8024
96.199997	67.669	162.6006
97.500000	67.624	162.3890
98.800003	67.577	162.1887
100.000000	67.534	162.0157
101.500000	67.482	161.8161
103.000000	67.433	161.6347
104.400002	67.388	161.4802
106.000000	67.335	161.3157
107.500000	67.284	161.1699
109.000000	67.234	161.0336
110.599998	67.180	160.8986
112.000000	67.134	160.7873
113.800003	67.075	160.6537
115.000000	67.036	160.5712
117.199997	66.965	160.4331
118.000000	66.939	160.3865
120.599998	66.858	160.2452
122.000000	66.815	160.1746
124.099998	66.752	160.0764
125.000000	66.726	160.0372
126.500000	66.681	159.9753
128.000000	66.637	159.9172
131.500000	66.535	159.7998
132.000000	66.520	159.7854
134.000000	66.463	159.7327
136.000000	66.406	159.6862
138.000000	66.349	159.6471
140.000000	66.292	159.6171
143.000000	66.210	159.5898
145.000000	66.157	159.5800
147.500000	66.093	159.5668
150.000000	66.031	159.5501
152.500000	65.972	159.5367
155.000000	65.914	159.5325
157.500000	65.854	159.5392
160.000000	65.795	159.5539
162.500000	65.738	159.5745
165.000000	65.686	159.6030
167.500000	65.636	159.6388
170.000000	65.586	159.6793
172.500000	65.537	159.7240
175.000000	65.487	159.7723
177.500000	65.435	159.8248
180.000000	65.378	159.8835
182.500000	65.314	159.9487
185.000000	65.239	160.0190
187.500000	65.155	160.0923
190.000000	65.068	160.1682
192.500000	64.985	160.2470
195.000000	64.915	160.3294
197.500000	64.858	160.4151
200.000000	64.814	160.5040
203.000000	64.777	160.6154
206.000000	64.754	160.7313
209.000000	64.738	160.8517
212.000000	64.719	160.9760
214.000000	64.702	161.0609
218.000000	64.657	161.2357
220.000000	64.630	161.3254
224.000000	64.569	161.5088
227.000000	64.522	161.6497
230.000000	64.473	161.7939
233.000000	64.424	161.9413
236.000000	64.378	162.0911
240.000000	64.318	162.2949
243.000000	64.274	162.4517
247.000000	64.215	162.6627
250.000000	64.171	162.8212
254.000000	64.116	163.0334
258.000000	64.064	163.2485
262.000000	64.013	163.4679
265.000000	63.976	163.6356
269.000000	63.927	163.8629
272.000000	63.892	164.0353
276.000000	63.846	164.2667
280.000000	63.801	164.4988
285.000000	63.747	164.7910
290.000000	63.694	165.0875
295.000000	63.642	165.3858
300.000000	63.591	165.6848
304.000000	63.550	165.9244
307.000000	63.520	166.1048
311.000000	63.479	166.3477
315.000000	63.440	166.5931
320.000000	63.392	166.9017
325.000000	63.347	167.2130
330.000000	63.304	167.5259
335.000000	63.265	167.8383
340.000000	63.230	168.1501
345.000000	63.198	168.4635
350.000000	63.162	168.7791
355.000000	63.121	169.0953
360.000000	63.081	169.4113
365.000000	63.044	169.7281
370.000000	63.011	170.0464
375.000000	62.978	170.3654
382.000000	62.932	170.8124
387.000000	62.900	171.1326
395.000000	62.854	171.6443
400.000000	62.828	171.9640
406.000000	62.797	172.3480
412.000000	62.765	172.7327
418.000000	62.733	173.1185
425.000000	62.698	173.5681
431.000000	62.669	173.9526
437.000000	62.640	174.3367
444.000000	62.608	174.7857
450.000000	62.582	175.1721
455.000000	62.562	175.4951
462.000000	62.537	175.9485
468.000000	62.517	176.3387
475.000000	62.495	176.7962
482.000000	62.473	177.2559
487.000000	62.457	177.5856
494.000000	62.436	178.0470
500.000000	62.419	178.4402
508.000000	62.400	178.9590
515.000000	62.386	179.4084
522.000000	62.372	179.8559
530.000000	62.356	-179.6329
538.000000	62.341	-179.1223
545.000000	62.328	-178.6779
552.000000	62.317	-178.2359
560.000000	62.308	-177.7335
570.000000	62.298	-177.1111
580.000000	62.288	-176.4935
590.000000	62.279	-175.8758
600.000000	62.269	-175.2533
608.000000	62.262	-174.7513
615.000000	62.256	-174.3102
622.000000	62.252	-173.8683
630.000000	62.249	-173.3637
640.000000	62.247	-172.7347
650.000000	62.247	-172.1059
660.000000	62.252	-171.4747
670.000000	62.259	-170.8426
680.000000	62.266	-170.2153
690.000000	62.273	-169.5977
700.000000	62.278	-168.9841
710.000000	62.281	-168.3483
720.000000	62.287	-167.6647
730.000000	62.301	-166.9535
740.000000	62.325	-166.2615
750.000000	62.353	-165.6040
762.000000	62.386	-164.8392
775.000000	62.421	-164.0147
788.000000	62.459	-163.1857
800.000000	62.496	-162.4185
812.000000	62.538	-161.6509
825.000000	62.586	-160.8223
838.000000	62.638	-160.0041
850.000000	62.692	-159.2666
862.000000	62.751	-158.5551
875.000000	62.819	-157.8176
885.000000	62.874	-157.2706
900.000000	62.958	-156.4720
912.000000	63.025	-155.8459
925.000000	63.099	-155.1801
938.000000	63.175	-154.5307
950.000000	63.249	-153.9490
962.000000	63.324	-153.3865
975.000000	63.410	-152.8007
988.000000	63.499	-152.2414
1000.000000	63.584	-151.7514
1015.000000	63.694	-151.1793
1030.000000	63.806	-150.6577
1044.000000	63.912	-150.2194
1060.000000	64.036	-149.7755
1075.000000	64.151	-149.4110
1090.000000	64.264	-149.0912
1106.000000	64.381	-148.7937
1120.000000	64.483	-148.5677
1138.000000	64.613	-148.3196
1150.000000	64.699	-148.1777
1172.000000	64.854	-147.9617
1180.000000	64.911	-147.8963
1206.000000	65.097	-147.7253
1220.000000	65.200	-147.6553
1241.000000	65.362	-147.5699
1250.000000	65.434	-147.5374
1265.000000	65.559	-147.4847
1280.000000	65.686	-147.4302
1315.000000	65.958	-147.2803
1320.000000	65.990	-147.2563
1340.000000	66.089	-147.1556
1360.000000	66.141	-147.0521
1380.000000	66.157	-146.9507
1400.000000	66.162	-146.8564
1430.000000	66.193	-146.7387
1450.000000	66.242	-146.6820
1475.000000	66.335	-146.6405
1500.000000	66.451	-146.6355
1525.000000	66.579	-146.6674
1550.000000	66.707	-146.7257
1575.000000	66.829	-146.7902
1600.000000	66.942	-146.8404
1625.000000	67.048	-146.8649
1650.000000	67.148	-146.8495
1675.000000	67.245	-146.7835
1700.000000	67.345	-146.6777
1725.000000	67.450	-146.5531
1750.000000	67.561	-146.4289
1775.000000	67.677	-146.3201
1800.000000	67.797	-146.2355
1825.000000	67.921	-146.1799
1850.000000	68.049	-146.1548
1875.000000	68.178	-146.1590
1900.000000	68.310	-146.1902
1925.000000	68.444	-146.2531
1950.000000	68.580	-146.3585
1975.000000	68.718	-146.5162
2000.000000	68.855	-146.7289
2030.000000	69.018	-147.0499
2060.000000	69.177	-147.4342
2090.000000	69.334	-147.8789
2120.000000	69.487	-148.3752
2140.000000	69.587	-148.7311
2180.000000	69.783	-149.5064
2200.000000	69.879	-149.9289
2240.000000	70.065	-150.8442
2270.000000	70.200	-151.5873
2300.000000	70.331	-152.3752
2330.000000	70.457	-153.2098
2360.000000	70.577	-154.0940
2400.000000	70.725	-155.3495
2430.000000	70.827	-156.3457
2470.000000	70.953	-157.7418
2500.000000	71.036	-158.8373
2540.000000	71.132	-160.3539
2580.000000	71.208	-161.9192
2620.000000	71.265	-163.5118
2650.000000	71.295	-164.7101
2690.000000	71.319	-166.2978
2720.000000	71.326	-167.4745
2760.000000	71.322	-169.0179
2800.000000	71.305	-170.5266
2850.000000	71.266	-172.3588
2900.000000	71.209	-174.1253
2950.000000	71.132	-175.8139
3000.000000	71.036	-177.4103
3040.000000	70.947	-178.6136
3070.000000	70.875	-179.4710
3110.000000	70.774	179.4460
3150.000000	70.668	178.4312
3200.000000	70.532	177.2573
3250.000000	70.390	176.1855
3300.000000	70.244	175.2111
3350.000000	70.092	174.3283
3400.000000	69.935	173.5305
3450.000000	69.772	172.8098
3500.000000	69.603	172.1582
3550.000000	69.431	171.5681
3600.000000	69.258	171.0346
3650.000000	69.088	170.5582
3700.000000	68.925	170.1432
3750.000000	68.771	169.7947
3820.000000	68.570	169.4213
3870.000000	68.433	169.2339
3950.000000	68.221	169.0618
4000.000000	68.087	169.0284
4060.000000	67.921	169.0556
4120.000000	67.746	169.1458
4180.000000	67.560	169.2910
4250.000000	67.331	169.5238
4310.000000	67.129	169.7745
4370.000000	66.931	170.0708
4440.000000	66.713	170.4727
4500.000000	66.545	170.8671
4550.000000	66.419	171.2316
4620.000000	66.262	171.7964
4680.000000	66.140	172.3303
4750.000000	66.009	173.0067
4820.000000	65.884	173.7292
4870.000000	65.798	174.2662
4940.000000	65.680	175.0408
5000.000000	65.580	175.7244
5080.000000	65.449	176.6693
5150.000000	65.335	177.5373
5220.000000	65.223	178.4490
5300.000000	65.101	179.5396
5380.000000	64.984	-179.3313
5450.000000	64.887	-178.3237
5520.000000	64.800	-177.3067
5600.000000	64.716	-176.1395
5700.000000	64.634	-174.6803
5800.000000	64.579	-173.2293
5900.000000	64.554	-171.7893
6000.000000	64.555	-170.3589
6080.000000	64.566	-169.2207
6150.000000	64.578	-168.2293
6220.000000	64.592	-167.2428
6300.000000	64.610	-166.1231
6400.000000	64.643	-164.7378
6500.000000	64.691	-163.3709
6600.000000	64.760	-162.0237
6700.000000	64.857	-160.7012
6800.000000	64.991	-159.4307
6900.000000	65.161	-158.2479
7000.000000	65.370	-157.1670
7100.000000	65.623	-156.2121
7200.000000	65.931	-155.4322
7300.000000	66.300	-154.8901
7400.000000	66.733	-154.6559
7500.000000	67.230	-154.8131
7620.000000	67.896	-155.6658
7750.000000	68.642	-157.6385
7880.000000	69.325	-160.9528
8000.000000	69.824	-165.3407
8120.000000	70.145	-170.9754
8250.000000	70.242	-178.2107
8380.000000	70.054	173.9276
8500.000000	69.627	166.7407
8620.000000	68.985	160.1873
8750.000000	68.102	154.2654
8850.000000	67.335	150.7017
9000.000000	66.112	146.9973
9120.000000	65.120	145.3271
9250.000000	64.072	144.6032
9380.000000	63.080	144.7803
9500.000000	62.230	145.5569
9620.000000	61.457	146.7780
9750.000000	60.705	148.4731
9880.000000	60.040	150.4458
10000.000000	59.497	152.4365
10150.000000	58.909	155.0666
10300.000000	58.410	157.7703
10440.000000	58.013	160.2920
10600.000000	57.632	163.1023
10750.000000	57.343	165.6093
10900.000000	57.117	167.9409
11060.000000	56.940	170.1816
11200.000000	56.828	171.8939
11380.000000	56.724	173.7081
11500.000000	56.670	174.6542
11720.000000	56.591	175.8100
11800.000000	56.564	176.0428
12060.000000	56.449	176.1546
12200.000000	56.348	175.8614
12410.000000	56.118	175.0993
12500.000000	55.985	174.7029
12650.000000	55.711	174.0204
12800.000000	55.363	173.3867
13150.000000	54.213	172.5430
13200.000000	54.008	172.5288
13400.000000	53.108	172.8131
13600.000000	52.129	173.7750
13800.000000	51.156	175.7188
14000.000000	50.296	179.1627
14300.000000	49.652	-172.7235
14500.000000	49.864	-168.1466
14750.000000	50.384	-167.3953
15000.000000	50.536	-170.8349
15250.000000	50.142	-175.3746
15500.000000	49.262	-179.2742
15750.000000	48.011	178.3683
16000.000000	46.567	178.1407
16250.000000	45.158	-179.7099
16500.000000	43.984	-175.4401
16750.000000	43.154	-169.8000
17000.000000	42.670	-163.7908
17250.000000	42.453	-158.3120
17500.000000	42.393	-153.8966
17750.000000	42.393	-150.6749
18000.000000	42.381	-148.5044
18250.000000	42.301	-147.1131
18500.000000	42.112	-146.2085
18750.000000	41.793	-145.5611
19000.000000	41.340	-145.0930
19250.000000	40.745	-144.8656
19500.000000	40.009	-144.9274
19750.000000	39.228	-145.1912
20000.000000	38.697	-145.4306
