* Measurement data measured by REW V5.31.3
* Source: Microphone (6- USB Sound Device        ), MICROPHONE (Master Volume), L, volume: 0.700
* Format: 256k Log Swept Sine, 1 sweep at -12.0 dBFS with no timing reference
* Dated: 22-Mar-2025 16:32:34
* REW Settings:
*  C-weighting compensation: Off
*  Target level: 75.0 dB
* Note: 
* Measurement: ME Country Style L
* Smoothing: 1/12 octave
* Frequency Step: 1/48 octave
* Start Frequency: 20.300 Hz
*
* Freq(Hz)	SPL(dB)	Phase(degrees)
20.299999	66.771	-103.1381
20.600000	66.909	-99.3142
20.900000	67.797	-98.0669
21.200001	69.240	-101.9886
21.400000	70.243	-106.8316
21.799999	71.884	-118.1012
22.000000	72.428	-123.1930
22.400000	72.911	-130.2535
22.700001	72.834	-131.6928
23.000000	72.620	-129.2622
23.299999	72.584	-123.9306
23.600000	72.904	-118.6702
24.000000	73.615	-116.7865
24.299999	74.029	-120.0936
24.700001	74.179	-129.3834
25.000000	74.010	-138.4608
25.400000	73.595	-150.4463
25.799999	73.297	-159.0961
26.200001	73.454	-163.1597
26.500000	73.890	-164.3422
26.900000	74.618	-165.8288
27.200001	75.050	-167.7751
27.600000	75.281	-171.5358
28.000000	75.063	-175.9602
28.500000	74.274	178.9456
29.000000	73.217	175.6707
29.500000	72.291	174.7016
30.000000	71.757	175.2885
30.400000	71.628	176.0120
30.700001	71.669	176.3132
31.100000	71.849	176.0899
31.500000	72.106	175.0189
32.000000	72.420	172.6666
32.500000	72.614	169.7148
33.000000	72.597	166.7217
33.500000	72.307	164.0210
34.000000	71.737	161.7498
34.500000	70.954	159.9275
35.000000	70.125	158.4362
35.500000	69.467	157.0348
36.000000	69.111	155.6151
36.500000	69.014	154.4573
37.000000	69.045	154.0390
37.500000	69.110	154.5890
38.200001	69.214	156.4079
38.700001	69.289	157.6252
39.500000	69.333	158.4744
40.000000	69.280	158.4896
40.599998	69.163	158.3321
41.200001	69.039	157.9141
41.799999	68.923	156.9764
42.500000	68.779	155.3842
43.099998	68.672	154.1271
43.700001	68.611	153.2710
44.400002	68.558	152.7313
45.000000	68.452	152.6693
45.500000	68.312	152.9766
46.200001	68.125	153.7368
46.799999	68.055	154.0596
47.500000	68.085	153.4148
48.200001	68.175	151.9775
48.700001	68.264	150.9012
49.400002	68.424	149.5795
50.000000	68.560	148.5318
50.799999	68.662	147.2726
51.500000	68.681	146.6175
52.200001	68.693	146.5185
53.000000	68.714	146.8004
53.799999	68.692	147.0369
54.500000	68.608	146.8959
55.200001	68.487	146.3568
56.000000	68.392	145.4659
57.000000	68.430	144.5546
58.000000	68.554	144.4046
59.000000	68.596	144.5283
60.000000	68.498	144.2330
60.799999	68.435	143.7322
61.500000	68.460	143.1357
62.200001	68.513	142.5366
63.000000	68.540	142.1447
64.000000	68.527	141.9291
65.000000	68.495	141.3409
66.000000	68.477	140.6736
67.000000	68.518	140.2646
68.000000	68.562	139.7431
69.000000	68.567	139.1112
70.000000	68.589	138.5205
71.000000	68.626	137.8570
72.000000	68.642	137.1388
73.000000	68.654	136.4429
74.000000	68.679	135.7711
75.000000	68.690	135.2248
76.199997	68.681	134.7638
77.500000	68.676	134.2425
78.800003	68.681	133.7444
80.000000	68.699	133.3268
81.199997	68.719	132.6815
82.500000	68.715	131.7917
83.800003	68.698	130.9732
85.000000	68.694	130.2768
86.199997	68.703	129.5398
87.500000	68.720	128.6819
88.500000	68.737	128.0221
90.000000	68.774	127.0911
91.199997	68.809	126.4130
92.500000	68.835	125.7004
93.800003	68.832	124.9787
95.000000	68.814	124.3256
96.199997	68.803	123.6709
97.500000	68.810	122.9101
98.800003	68.831	122.0805
100.000000	68.855	121.2831
101.500000	68.886	120.3427
103.000000	68.916	119.5191
104.400002	68.939	118.7968
106.000000	68.960	117.9856
107.500000	68.972	117.2252
109.000000	68.972	116.3885
110.599998	68.969	115.4073
112.000000	68.971	114.5618
113.800003	68.985	113.5232
115.000000	68.999	112.8291
117.199997	69.025	111.5909
118.000000	69.032	111.1882
120.599998	69.021	110.0613
122.000000	68.994	109.4355
124.099998	68.950	108.3062
125.000000	68.937	107.7544
126.500000	68.930	106.7859
128.000000	68.939	105.8151
131.500000	68.969	103.7678
132.000000	68.970	103.4985
134.000000	68.968	102.4556
136.000000	68.974	101.4718
138.000000	68.989	100.5318
140.000000	68.999	99.5363
143.000000	68.998	97.8448
145.000000	68.996	96.7370
147.500000	68.995	95.5017
150.000000	69.009	94.3150
152.500000	69.040	92.9698
155.000000	69.070	91.3791
157.500000	69.069	89.7729
160.000000	69.029	88.3707
162.500000	68.977	87.2116
165.000000	68.945	86.2351
167.500000	68.945	85.3237
170.000000	68.961	84.4532
172.500000	68.976	83.6671
175.000000	68.976	82.9059
177.500000	68.956	82.0356
180.000000	68.915	80.9738
182.500000	68.867	79.7348
185.000000	68.830	78.4551
187.500000	68.809	77.3095
190.000000	68.792	76.3960
192.500000	68.766	75.6898
195.000000	68.731	75.0861
197.500000	68.696	74.4746
200.000000	68.671	73.7967
203.000000	68.652	72.9157
206.000000	68.638	72.0154
209.000000	68.631	71.1487
212.000000	68.652	70.3755
214.000000	68.686	69.9071
218.000000	68.801	69.0016
220.000000	68.875	68.5500
224.000000	69.051	67.6089
227.000000	69.199	66.8433
230.000000	69.348	66.0307
233.000000	69.490	65.1708
236.000000	69.628	64.2397
240.000000	69.819	62.8351
243.000000	69.976	61.6431
247.000000	70.207	59.8462
250.000000	70.390	58.2683
254.000000	70.638	55.7836
258.000000	70.865	52.9066
262.000000	71.040	49.7075
265.000000	71.120	47.1557
269.000000	71.145	43.6922
272.000000	71.105	41.1696
276.000000	70.996	38.0481
280.000000	70.859	35.2739
285.000000	70.693	32.2689
290.000000	70.541	29.7572
295.000000	70.411	27.7772
300.000000	70.352	26.1893
304.000000	70.373	24.9361
307.000000	70.417	23.8715
311.000000	70.490	22.2205
315.000000	70.560	20.3124
320.000000	70.632	17.6523
325.000000	70.690	14.8097
330.000000	70.738	11.9039
335.000000	70.768	9.0049
340.000000	70.766	6.1530
345.000000	70.728	3.3959
350.000000	70.658	0.7729
355.000000	70.559	-1.7358
360.000000	70.439	-4.2068
365.000000	70.308	-6.7141
370.000000	70.170	-9.2672
375.000000	70.029	-11.8113
382.000000	69.837	-15.2543
387.000000	69.706	-17.5662
395.000000	69.492	-20.9556
400.000000	69.351	-22.8993
406.000000	69.179	-25.1056
412.000000	69.008	-27.2548
418.000000	68.838	-29.3953
425.000000	68.643	-31.9196
431.000000	68.484	-34.0704
437.000000	68.332	-36.0969
444.000000	68.159	-38.2514
450.000000	68.007	-39.9635
455.000000	67.873	-41.3303
462.000000	67.680	-43.2006
468.000000	67.513	-44.7642
475.000000	67.322	-46.5015
482.000000	67.133	-48.1385
487.000000	66.998	-49.2671
494.000000	66.814	-50.8220
500.000000	66.666	-52.1401
508.000000	66.490	-53.8384
515.000000	66.354	-55.2216
522.000000	66.230	-56.5093
530.000000	66.100	-57.9012
538.000000	65.979	-59.2634
545.000000	65.877	-60.4662
552.000000	65.781	-61.6568
560.000000	65.686	-62.9467
570.000000	65.588	-64.4496
580.000000	65.504	-65.9003
590.000000	65.437	-67.3504
600.000000	65.395	-68.8777
608.000000	65.375	-70.1799
615.000000	65.362	-71.3524
622.000000	65.349	-72.5276
630.000000	65.331	-73.8489
640.000000	65.300	-75.4309
650.000000	65.264	-76.9782
660.000000	65.237	-78.5588
670.000000	65.221	-80.1615
680.000000	65.209	-81.8087
690.000000	65.210	-83.5401
700.000000	65.231	-85.3120
710.000000	65.264	-87.0435
720.000000	65.301	-88.7405
730.000000	65.344	-90.4171
740.000000	65.392	-92.0414
750.000000	65.436	-93.6125
762.000000	65.477	-95.4964
775.000000	65.507	-97.6107
788.000000	65.530	-99.8231
800.000000	65.552	-101.9456
812.000000	65.583	-104.1268
825.000000	65.627	-106.4968
838.000000	65.672	-108.8809
850.000000	65.710	-111.0845
862.000000	65.746	-113.2766
875.000000	65.779	-115.7007
885.000000	65.800	-117.6287
900.000000	65.820	-120.5750
912.000000	65.828	-122.9176
925.000000	65.829	-125.4073
938.000000	65.827	-127.8452
950.000000	65.823	-130.0856
962.000000	65.815	-132.3592
975.000000	65.797	-134.8217
988.000000	65.768	-137.1902
1000.000000	65.727	-139.2404
1015.000000	65.659	-141.6152
1030.000000	65.575	-143.8269
1044.000000	65.485	-145.7736
1060.000000	65.377	-147.8412
1075.000000	65.283	-149.6385
1090.000000	65.203	-151.3347
1106.000000	65.132	-153.0734
1120.000000	65.085	-154.5563
1138.000000	65.039	-156.3557
1150.000000	65.013	-157.4305
1172.000000	64.971	-159.1175
1180.000000	64.959	-159.6573
1206.000000	64.957	-161.2025
1220.000000	64.989	-161.9077
1241.000000	65.091	-162.8162
1250.000000	65.157	-163.1583
1265.000000	65.296	-163.6772
1280.000000	65.471	-164.1376
1315.000000	65.977	-165.0638
1320.000000	66.053	-165.2001
1340.000000	66.356	-165.8184
1360.000000	66.653	-166.5894
1380.000000	66.957	-167.5062
1400.000000	67.285	-168.5712
1430.000000	67.854	-170.4750
1450.000000	68.295	-172.0189
1475.000000	68.905	-174.3751
1500.000000	69.554	-177.2459
1525.000000	70.223	179.4279
1550.000000	70.894	175.7238
1575.000000	71.554	171.7006
1600.000000	72.181	167.3959
1625.000000	72.766	162.8039
1650.000000	73.314	157.9763
1675.000000	73.822	152.9951
1700.000000	74.289	147.9095
1725.000000	74.722	142.7601
1750.000000	75.128	137.5662
1775.000000	75.506	132.3113
1800.000000	75.857	127.0033
1825.000000	76.183	121.6582
1850.000000	76.488	116.2849
1875.000000	76.771	110.8984
1900.000000	77.029	105.5047
1925.000000	77.262	100.1011
1950.000000	77.471	94.6824
1975.000000	77.651	89.2258
2000.000000	77.804	83.7126
2030.000000	77.948	77.0247
2060.000000	78.050	70.3051
2090.000000	78.106	63.6520
2120.000000	78.120	57.1129
2140.000000	78.106	52.8305
2180.000000	78.027	44.5316
2200.000000	77.963	40.5267
2240.000000	77.790	32.7529
2270.000000	77.626	27.0964
2300.000000	77.438	21.5872
2330.000000	77.227	16.2300
2360.000000	76.995	11.0145
2400.000000	76.653	4.2651
2430.000000	76.373	-0.6202
2470.000000	75.962	-6.8156
2500.000000	75.626	-11.1554
2540.000000	75.147	-16.4749
2580.000000	74.641	-21.2707
2620.000000	74.120	-25.5729
2650.000000	73.723	-28.5117
2690.000000	73.196	-32.0985
2720.000000	72.807	-34.5631
2760.000000	72.298	-37.5620
2800.000000	71.799	-40.2104
2850.000000	71.202	-43.0115
2900.000000	70.653	-45.3491
2950.000000	70.152	-47.3485
3000.000000	69.688	-49.0496
3040.000000	69.338	-50.2181
3070.000000	69.086	-51.0081
3110.000000	68.764	-51.9666
3150.000000	68.453	-52.8206
3200.000000	68.079	-53.7250
3250.000000	67.715	-54.4307
3300.000000	67.358	-54.9445
3350.000000	67.006	-55.2574
3400.000000	66.656	-55.3113
3450.000000	66.304	-54.9832
3500.000000	65.954	-54.1615
3550.000000	65.627	-52.8188
3600.000000	65.351	-51.0262
3650.000000	65.145	-48.9105
3700.000000	65.014	-46.5753
3750.000000	64.959	-44.0023
3820.000000	65.040	-39.8346
3870.000000	65.259	-36.6387
3950.000000	65.888	-32.3646
4000.000000	66.374	-30.7199
4060.000000	66.949	-29.7310
4120.000000	67.469	-29.4439
4180.000000	67.930	-29.5593
4250.000000	68.416	-30.0704
4310.000000	68.797	-30.8617
4370.000000	69.147	-32.0480
4440.000000	69.503	-33.9494
4500.000000	69.750	-35.9677
4550.000000	69.900	-37.8571
4620.000000	70.010	-40.6064
4680.000000	70.002	-42.8198
4750.000000	69.873	-44.9758
4820.000000	69.633	-46.4922
4870.000000	69.405	-47.1232
4940.000000	69.034	-47.3041
5000.000000	68.700	-46.7344
5080.000000	68.299	-44.8834
5150.000000	68.042	-42.4499
5220.000000	67.885	-39.7273
5300.000000	67.806	-36.8229
5380.000000	67.784	-34.5035
5450.000000	67.752	-32.9497
5520.000000	67.671	-31.5809
5600.000000	67.523	-29.8781
5700.000000	67.303	-27.2991
5800.000000	67.093	-24.4094
5900.000000	66.887	-21.4884
6000.000000	66.646	-18.5771
6080.000000	66.396	-16.1233
6150.000000	66.129	-13.7708
6220.000000	65.820	-11.1556
6300.000000	65.424	-7.7979
6400.000000	64.886	-3.0175
6500.000000	64.317	2.4183
6600.000000	63.731	8.5161
6700.000000	63.141	15.3207
6800.000000	62.564	22.9249
6900.000000	62.022	31.4109
7000.000000	61.546	40.7421
7100.000000	61.169	50.7260
7200.000000	60.913	61.0598
7300.000000	60.774	71.4653
7400.000000	60.739	81.8096
7500.000000	60.796	92.0723
7620.000000	60.974	104.2323
7750.000000	61.253	116.8997
7880.000000	61.522	128.4877
8000.000000	61.668	137.8559
8120.000000	61.632	145.9573
8250.000000	61.298	153.8389
8380.000000	60.610	162.0009
8500.000000	59.696	171.3530
8620.000000	58.647	-176.2217
8750.000000	57.571	-158.8024
8850.000000	56.910	-143.0338
9000.000000	56.326	-116.3555
9120.000000	56.314	-92.6234
9250.000000	56.837	-66.6857
9380.000000	57.808	-44.5744
9500.000000	58.854	-29.1204
9620.000000	59.815	-17.6705
9750.000000	60.588	-8.1999
9880.000000	60.997	-0.0549
10000.000000	61.056	7.6781
10150.000000	60.797	19.0477
10300.000000	60.320	32.9513
10440.000000	59.794	48.0661
10600.000000	59.179	67.2639
10750.000000	58.621	86.5928
10900.000000	58.097	106.9911
11060.000000	57.601	130.0446
11200.000000	57.250	151.5513
11380.000000	56.965	-178.9886
11500.000000	56.900	-158.8731
11720.000000	56.999	-123.3301
11800.000000	57.073	-111.1552
12060.000000	57.281	-73.7762
12200.000000	57.315	-54.4128
12410.000000	57.205	-25.7297
12500.000000	57.090	-13.3869
12650.000000	56.808	7.6246
12800.000000	56.419	29.6709
13150.000000	55.240	88.1235
13200.000000	55.070	97.4708
13400.000000	54.535	138.2246
13600.000000	54.538	-172.0959
13800.000000	55.423	-113.6710
14000.000000	57.074	-64.0330
14300.000000	59.910	-15.9612
14500.000000	61.457	6.5818
14750.000000	62.663	30.5989
15000.000000	63.021	55.1661
15250.000000	62.783	86.3834
15500.000000	62.445	130.7094
15750.000000	62.502	-175.8469
16000.000000	63.048	-128.6887
16250.000000	63.830	-89.6396
16500.000000	64.551	-56.3431
16750.000000	64.952	-27.8594
17000.000000	64.847	-2.3868
17250.000000	64.162	22.7666
17500.000000	62.933	49.4864
17750.000000	61.220	77.8802
18000.000000	59.036	106.7846
18250.000000	56.375	134.7378
18500.000000	53.336	160.1268
18750.000000	50.609	-179.1257
19000.000000	49.909	-159.0828
19250.000000	51.240	-131.1324
19500.000000	52.869	-98.8120
19750.000000	54.005	-71.8311
20000.000000	54.538	-57.1635
