* Measurement data measured by REW V5.31.3
* Source: Microphone (6- USB Sound Device        ), MICROPHONE (Master Volume), L, volume: 0.700
* Format: 256k Log Swept Sine, 1 sweep at -12.0 dBFS with no timing reference
* Dated: 22-Mar-2025 16:34:01
* REW Settings:
*  C-weighting compensation: Off
*  Target level: 75.0 dB
* Note: 
* Measurement: ME Violen Solo L
* Smoothing: 1/12 octave
* Frequency Step: 1/48 octave
* Start Frequency: 20.300 Hz
*
* Freq(Hz)	SPL(dB)	Phase(degrees)
20.299999	60.937	-96.6449
20.600000	62.431	-98.4038
20.900000	63.701	-102.6832
21.200001	64.437	-108.4791
21.400000	64.593	-112.5234
21.799999	64.090	-119.5037
22.000000	63.436	-121.7923
22.400000	61.404	-122.2036
22.700001	59.415	-117.3616
23.000000	57.318	-108.0486
23.299999	55.419	-97.8936
23.600000	53.936	-92.5432
24.000000	53.268	-97.6037
24.299999	54.477	-107.4039
24.700001	57.680	-117.1088
25.000000	60.210	-120.4557
25.400000	63.024	-123.4715
25.799999	64.985	-127.0620
26.200001	66.062	-131.8241
26.500000	66.324	-136.2528
26.900000	66.035	-143.5246
27.200001	65.441	-150.2367
27.600000	64.392	-160.9198
28.000000	63.459	-172.2182
28.500000	63.076	177.4639
29.000000	63.501	173.9208
29.500000	63.975	174.5842
30.000000	63.879	176.8173
30.400000	63.203	179.4910
30.700001	62.335	-177.5980
31.100000	60.783	-171.9815
31.500000	59.013	-164.8811
32.000000	57.105	-159.0103
32.500000	56.134	-162.6033
33.000000	56.093	-172.5044
33.500000	56.616	-179.5626
34.000000	57.558	179.7838
34.500000	58.836	-178.0381
35.000000	60.113	-177.9434
35.500000	61.023	178.6606
36.000000	61.404	173.2024
36.500000	61.276	167.9826
37.000000	60.793	165.2039
37.500000	60.233	166.1569
38.200001	59.849	172.0548
38.700001	59.899	176.0529
39.500000	60.024	178.5897
40.000000	59.979	178.5559
40.599998	59.902	178.3398
41.200001	59.963	178.5603
41.799999	60.143	178.9820
42.500000	60.221	179.4235
43.099998	59.995	-179.8558
43.700001	59.554	-178.4900
44.400002	59.047	-176.6758
45.000000	58.799	-175.7904
45.500000	58.717	-175.4551
46.200001	58.687	-174.4071
46.799999	58.706	-172.2685
47.500000	58.806	-169.1013
48.200001	58.970	-166.8433
48.700001	59.093	-166.0464
49.400002	59.277	-165.3782
50.000000	59.462	-164.6594
50.799999	59.684	-163.4928
51.500000	59.799	-162.6209
52.200001	59.937	-162.2029
53.000000	60.283	-162.5008
53.799999	60.785	-162.9446
54.500000	61.211	-162.6139
55.200001	61.539	-161.7255
56.000000	61.763	-161.0690
57.000000	61.917	-161.6553
58.000000	62.178	-162.6411
59.000000	62.616	-162.6681
60.000000	63.068	-162.1805
60.799999	63.396	-162.2653
61.500000	63.669	-163.0097
62.200001	63.918	-164.2109
63.000000	64.156	-165.7224
64.000000	64.382	-167.5055
65.000000	64.552	-169.3075
66.000000	64.696	-170.8733
67.000000	64.841	-171.7965
68.000000	64.968	-172.4567
69.000000	65.032	-173.4491
70.000000	65.060	-174.8521
71.000000	65.094	-176.3701
72.000000	65.143	-177.7742
73.000000	65.191	-179.1630
74.000000	65.227	179.4401
75.000000	65.265	178.2278
76.199997	65.325	177.0613
77.500000	65.381	175.9973
78.800003	65.420	175.1218
80.000000	65.446	174.5151
81.199997	65.467	174.0750
82.500000	65.492	173.6837
83.800003	65.520	173.2330
85.000000	65.566	172.6686
86.199997	65.627	171.9746
87.500000	65.692	171.2774
88.500000	65.744	170.8434
90.000000	65.838	170.2236
91.199997	65.923	169.6842
92.500000	66.019	169.0974
93.800003	66.128	168.5529
95.000000	66.240	168.0912
96.199997	66.353	167.6722
97.500000	66.475	167.2188
98.800003	66.593	166.7006
100.000000	66.696	166.1505
101.500000	66.822	165.4097
103.000000	66.961	164.6772
104.400002	67.100	164.0025
106.000000	67.254	163.1417
107.500000	67.390	162.1915
109.000000	67.526	161.1256
110.599998	67.672	159.9106
112.000000	67.809	158.8281
113.800003	68.001	157.4771
115.000000	68.131	156.6042
117.199997	68.349	154.9544
118.000000	68.421	154.3154
120.599998	68.646	152.2892
122.000000	68.763	151.3221
124.099998	68.934	149.9323
125.000000	69.008	149.3046
126.500000	69.130	148.1487
128.000000	69.247	146.8262
131.500000	69.495	143.3255
132.000000	69.529	142.8213
134.000000	69.658	140.8485
136.000000	69.774	138.9269
138.000000	69.878	137.0442
140.000000	69.972	135.2295
143.000000	70.088	132.7175
145.000000	70.154	131.1743
147.500000	70.230	129.3169
150.000000	70.290	127.4261
152.500000	70.320	125.3753
155.000000	70.324	123.0570
157.500000	70.322	120.5214
160.000000	70.327	118.0363
162.500000	70.335	115.7965
165.000000	70.331	113.7789
167.500000	70.320	111.9015
170.000000	70.308	110.1823
172.500000	70.288	108.6477
175.000000	70.250	107.2639
177.500000	70.197	105.9733
180.000000	70.131	104.7011
182.500000	70.055	103.3952
185.000000	69.974	102.0598
187.500000	69.890	100.7064
190.000000	69.808	99.3254
192.500000	69.738	97.9275
195.000000	69.687	96.5610
197.500000	69.660	95.2834
200.000000	69.652	94.0923
203.000000	69.661	92.6993
206.000000	69.676	91.3442
209.000000	69.677	90.0970
212.000000	69.655	89.0079
214.000000	69.633	88.3824
218.000000	69.597	87.3698
220.000000	69.591	86.9536
224.000000	69.615	86.1650
227.000000	69.665	85.4980
230.000000	69.734	84.7370
233.000000	69.819	83.9273
236.000000	69.924	83.0916
240.000000	70.099	81.8481
243.000000	70.253	80.7333
247.000000	70.477	78.9352
250.000000	70.652	77.3241
254.000000	70.885	74.8183
258.000000	71.091	71.9843
262.000000	71.240	68.9077
265.000000	71.295	66.5221
269.000000	71.278	63.4372
272.000000	71.203	61.3221
276.000000	71.056	58.8638
280.000000	70.903	56.7842
285.000000	70.738	54.5241
290.000000	70.592	52.5499
295.000000	70.491	50.9587
300.000000	70.493	49.6375
304.000000	70.576	48.5594
307.000000	70.667	47.6833
311.000000	70.797	46.4233
315.000000	70.917	45.0503
320.000000	71.046	43.0938
325.000000	71.155	40.8409
330.000000	71.248	38.3854
335.000000	71.319	35.7915
340.000000	71.364	33.0671
345.000000	71.386	30.2724
350.000000	71.388	27.5315
355.000000	71.368	24.9213
360.000000	71.327	22.4319
365.000000	71.275	20.0396
370.000000	71.224	17.7339
375.000000	71.174	15.4983
382.000000	71.102	12.4403
387.000000	71.049	10.2764
395.000000	70.955	6.8960
400.000000	70.892	4.8783
406.000000	70.812	2.5255
412.000000	70.723	0.2125
418.000000	70.626	-2.0494
425.000000	70.518	-4.6294
431.000000	70.431	-6.8039
437.000000	70.343	-8.9398
444.000000	70.232	-11.4026
450.000000	70.130	-13.4874
455.000000	70.046	-15.1818
462.000000	69.933	-17.4321
468.000000	69.837	-19.2274
475.000000	69.727	-21.2233
482.000000	69.630	-23.1488
487.000000	69.566	-24.4706
494.000000	69.477	-26.2634
500.000000	69.403	-27.7772
508.000000	69.311	-29.7582
515.000000	69.227	-31.4232
522.000000	69.136	-33.0362
530.000000	69.034	-34.8591
538.000000	68.943	-36.6719
545.000000	68.870	-38.2158
552.000000	68.805	-39.6735
560.000000	68.740	-41.2477
570.000000	68.674	-43.1941
580.000000	68.624	-45.1616
590.000000	68.594	-47.0540
600.000000	68.580	-48.7930
608.000000	68.568	-50.1324
615.000000	68.553	-51.3408
622.000000	68.534	-52.6077
630.000000	68.514	-54.1174
640.000000	68.496	-56.0403
650.000000	68.487	-57.9656
660.000000	68.489	-59.8835
670.000000	68.510	-61.7879
680.000000	68.550	-63.7392
690.000000	68.594	-65.7519
700.000000	68.632	-67.7173
710.000000	68.659	-69.5421
720.000000	68.681	-71.2786
730.000000	68.699	-73.0292
740.000000	68.715	-74.8013
750.000000	68.731	-76.5485
762.000000	68.748	-78.6139
775.000000	68.766	-80.8307
788.000000	68.790	-83.0536
800.000000	68.828	-85.1541
812.000000	68.879	-87.2748
825.000000	68.936	-89.5294
838.000000	68.993	-91.7346
850.000000	69.049	-93.7280
862.000000	69.111	-95.7106
875.000000	69.181	-97.8676
885.000000	69.237	-99.5168
900.000000	69.320	-101.9279
912.000000	69.379	-103.8182
925.000000	69.437	-105.8752
938.000000	69.498	-107.9622
950.000000	69.561	-109.9113
962.000000	69.625	-111.8754
975.000000	69.694	-113.9879
988.000000	69.763	-116.0234
1000.000000	69.829	-117.7960
1015.000000	69.917	-119.9089
1030.000000	70.018	-122.0487
1044.000000	70.123	-124.1455
1060.000000	70.249	-126.5731
1075.000000	70.378	-128.7500
1090.000000	70.518	-130.8190
1106.000000	70.677	-133.0470
1120.000000	70.830	-135.1046
1138.000000	71.051	-137.8553
1150.000000	71.206	-139.6985
1172.000000	71.485	-143.0547
1180.000000	71.583	-144.2875
1206.000000	71.895	-148.4321
1220.000000	72.064	-150.7393
1241.000000	72.326	-154.2620
1250.000000	72.443	-155.7931
1265.000000	72.645	-158.3890
1280.000000	72.849	-161.0422
1315.000000	73.288	-167.3138
1320.000000	73.342	-168.2028
1340.000000	73.520	-171.7151
1360.000000	73.637	-175.1425
1380.000000	73.710	-178.4761
1400.000000	73.771	178.2430
1430.000000	73.887	173.2720
1450.000000	74.001	169.9152
1475.000000	74.187	165.7388
1500.000000	74.403	161.6404
1525.000000	74.635	157.5953
1550.000000	74.875	153.5451
1575.000000	75.112	149.4470
1600.000000	75.335	145.2294
1625.000000	75.542	140.9220
1650.000000	75.733	136.5933
1675.000000	75.901	132.2531
1700.000000	76.039	127.8768
1725.000000	76.148	123.5248
1750.000000	76.233	119.3129
1775.000000	76.301	115.2239
1800.000000	76.364	111.2168
1825.000000	76.428	107.2894
1850.000000	76.495	103.4296
1875.000000	76.565	99.6124
1900.000000	76.635	95.8171
1925.000000	76.702	92.0453
1950.000000	76.763	88.3070
1975.000000	76.818	84.6217
2000.000000	76.866	81.0118
2030.000000	76.913	76.7685
2060.000000	76.952	72.5674
2090.000000	76.989	68.3829
2120.000000	77.026	64.2434
2140.000000	77.046	61.5172
2180.000000	77.064	56.1272
2200.000000	77.068	53.4544
2240.000000	77.077	48.1560
2270.000000	77.080	44.1977
2300.000000	77.079	40.2188
2330.000000	77.068	36.2151
2360.000000	77.040	32.2135
2400.000000	76.969	26.9441
2430.000000	76.888	23.0666
2470.000000	76.741	18.0415
2500.000000	76.599	14.4102
2540.000000	76.372	9.7930
2580.000000	76.117	5.4780
2620.000000	75.846	1.4829
2650.000000	75.637	-1.3021
2690.000000	75.358	-4.7545
2720.000000	75.149	-7.1685
2760.000000	74.872	-10.1804
2800.000000	74.597	-12.9646
2850.000000	74.260	-16.1321
2900.000000	73.938	-19.0055
2950.000000	73.629	-21.6536
3000.000000	73.332	-24.1254
3040.000000	73.102	-25.9864
3070.000000	72.929	-27.3090
3110.000000	72.694	-28.9758
3150.000000	72.456	-30.5393
3200.000000	72.155	-32.3472
3250.000000	71.843	-33.9604
3300.000000	71.507	-35.2924
3350.000000	71.138	-36.2516
3400.000000	70.743	-36.7719
3450.000000	70.334	-36.7836
3500.000000	69.929	-36.2029
3550.000000	69.552	-35.0026
3600.000000	69.226	-33.2311
3650.000000	68.971	-30.9799
3700.000000	68.797	-28.3483
3750.000000	68.704	-25.3537
3820.000000	68.742	-20.4447
3870.000000	68.942	-16.6284
3950.000000	69.561	-11.2315
4000.000000	70.044	-8.7938
4060.000000	70.630	-6.7189
4120.000000	71.197	-5.2260
4180.000000	71.754	-4.1086
4250.000000	72.407	-3.2720
4310.000000	72.975	-3.0162
4370.000000	73.544	-3.2442
4440.000000	74.196	-4.1244
4500.000000	74.730	-5.3454
4550.000000	75.144	-6.6248
4620.000000	75.659	-8.7147
4680.000000	76.030	-10.7032
4750.000000	76.380	-13.1157
4820.000000	76.643	-15.4991
4870.000000	76.784	-17.1486
4940.000000	76.924	-19.3724
5000.000000	76.997	-21.2105
5080.000000	77.034	-23.5694
5150.000000	77.014	-25.5406
5220.000000	76.948	-27.4636
5300.000000	76.797	-29.6584
5380.000000	76.534	-31.7831
5450.000000	76.187	-33.3805
5520.000000	75.730	-34.4680
5600.000000	75.109	-34.7942
5700.000000	74.286	-33.6973
5800.000000	73.505	-31.2712
5900.000000	72.794	-28.0103
6000.000000	72.126	-24.1734
6080.000000	71.599	-20.7043
6150.000000	71.132	-17.3301
6220.000000	70.659	-13.6003
6300.000000	70.117	-8.8809
6400.000000	69.454	-2.3198
6500.000000	68.822	4.9071
6600.000000	68.227	12.7441
6700.000000	67.677	21.2043
6800.000000	67.188	30.3434
6900.000000	66.782	40.2051
7000.000000	66.485	50.7494
7100.000000	66.323	61.7455
7200.000000	66.309	72.8713
7300.000000	66.439	83.8343
7400.000000	66.700	94.4421
7500.000000	67.076	104.5933
7620.000000	67.646	116.0189
7750.000000	68.331	127.1168
7880.000000	68.963	136.3997
8000.000000	69.385	143.1469
8120.000000	69.557	148.3000
8250.000000	69.369	152.7460
8380.000000	68.739	157.3286
8500.000000	67.803	163.2364
8620.000000	66.654	172.0405
8750.000000	65.372	-174.5793
8850.000000	64.483	-161.7777
9000.000000	63.461	-138.9158
9120.000000	63.039	-117.6226
9250.000000	63.111	-93.5796
9380.000000	63.683	-72.6665
9500.000000	64.419	-58.0643
9620.000000	65.101	-47.4273
9750.000000	65.578	-38.8240
9880.000000	65.680	-31.4884
10000.000000	65.446	-24.4092
10150.000000	64.817	-13.6880
10300.000000	63.974	-0.2981
10440.000000	63.109	14.3594
10600.000000	62.099	33.0244
10750.000000	61.158	51.8989
10900.000000	60.238	71.9589
11060.000000	59.302	94.8815
11200.000000	58.557	116.5779
11380.000000	57.769	146.7754
11500.000000	57.388	167.8113
11720.000000	56.999	-154.2381
11800.000000	56.930	-141.1716
12060.000000	56.770	-101.7468
12200.000000	56.631	-81.9393
12410.000000	56.259	-53.2733
12500.000000	56.021	-41.1869
12650.000000	55.501	-20.9710
12800.000000	54.822	-0.2076
13150.000000	52.688	53.9491
13200.000000	52.342	62.7152
13400.000000	50.980	101.6474
13600.000000	49.973	150.7785
13800.000000	49.838	-143.7292
14000.000000	50.749	-80.5255
14300.000000	53.074	-20.4703
14500.000000	54.514	7.4027
14750.000000	55.733	37.1855
15000.000000	56.237	67.3813
15250.000000	56.266	104.7078
15500.000000	56.281	154.5341
15750.000000	56.659	-150.4955
16000.000000	57.409	-102.7208
16250.000000	58.309	-62.2609
16500.000000	59.106	-27.6039
16750.000000	59.558	2.0320
17000.000000	59.485	28.8842
17250.000000	58.834	56.0096
17500.000000	57.661	85.2763
17750.000000	56.035	116.3543
18000.000000	53.972	147.8533
18250.000000	51.462	178.9554
18500.000000	48.555	-150.6520
18750.000000	45.653	-123.5836
19000.000000	44.141	-101.9684
19250.000000	44.900	-76.8214
19500.000000	46.508	-46.3821
19750.000000	47.780	-20.4817
20000.000000	48.411	-6.3489
