* Measurement data measured by REW V5.31.3
* Source: Microphone (4- USB Audio Device), MICROPHONE (Master Volume), R, volume: 0.250
* Format: 256k Log Swept Sine, 1 sweep at -12.0 dBFS with no timing reference
* Dated: 23-Aug-2024 15:44:54
* REW Settings:
*  C-weighting compensation: Off
*  Target level: 75.0 dB
* Note: 
* Measurement: Moondrop Block R
* Smoothing: 1/12 octave
* Frequency Step: 1/48 octave
* Start Frequency: 20.300 Hz
*
* Freq(Hz)	SPL(dB)	Phase(degrees)
20.299999	57.051	-44.2561
20.600000	58.004	-35.8630
20.900000	59.365	-27.4509
21.200001	60.773	-22.0115
21.400000	61.586	-20.1751
21.799999	62.720	-19.4926
22.000000	63.024	-20.0401
22.400000	63.157	-21.7928
22.700001	62.941	-23.0907
23.000000	62.586	-24.0830
23.299999	62.240	-24.7864
23.600000	62.041	-25.4545
24.000000	62.127	-26.8530
24.299999	62.433	-28.4473
24.700001	63.026	-31.0114
25.000000	63.520	-32.9159
25.400000	64.163	-35.0472
25.799999	64.746	-36.5764
26.200001	65.249	-37.5536
26.500000	65.574	-37.9791
26.900000	65.949	-38.1804
27.200001	66.201	-38.0871
27.600000	66.517	-37.7441
28.000000	66.808	-37.3505
28.500000	67.084	-37.0721
29.000000	67.175	-37.0240
29.500000	67.061	-36.8316
30.000000	66.874	-36.2948
30.400000	66.833	-36.0224
30.700001	66.929	-36.3360
31.100000	67.214	-37.7987
31.500000	67.591	-40.3073
32.000000	68.028	-43.7425
32.500000	68.349	-45.9130
33.000000	68.612	-46.0133
33.500000	68.912	-44.7838
34.000000	69.250	-43.8176
34.500000	69.561	-44.1311
35.000000	69.833	-45.6913
35.500000	70.122	-47.9777
36.000000	70.435	-50.4678
36.500000	70.680	-52.6323
37.000000	70.766	-53.8321
37.500000	70.724	-53.5958
38.200001	70.760	-51.6835
38.700001	71.000	-50.9715
39.500000	71.537	-52.4077
40.000000	71.823	-53.7384
40.599998	72.112	-54.6533
41.200001	72.344	-55.1562
41.799999	72.463	-55.9007
42.500000	72.483	-56.8127
43.099998	72.577	-57.0308
43.700001	72.837	-56.8662
44.400002	73.203	-56.8506
45.000000	73.448	-57.1550
45.500000	73.641	-57.6778
46.200001	74.010	-58.9965
46.799999	74.395	-60.1646
47.500000	74.814	-59.7610
48.200001	75.231	-56.6360
48.700001	75.552	-54.0746
49.400002	75.900	-52.6928
50.000000	75.969	-54.2247
50.799999	75.843	-58.3935
51.500000	75.850	-62.0226
52.200001	76.042	-64.7398
53.000000	76.243	-66.6743
53.799999	76.329	-67.7805
54.500000	76.402	-68.8131
55.200001	76.525	-70.2262
56.000000	76.721	-71.8418
57.000000	77.004	-73.2726
58.000000	77.268	-74.3731
59.000000	77.507	-75.4761
60.000000	77.755	-76.5476
60.799999	77.956	-77.4554
61.500000	78.108	-78.2824
62.200001	78.241	-78.9954
63.000000	78.401	-79.6606
64.000000	78.627	-80.7187
65.000000	78.837	-82.1131
66.000000	79.061	-83.2616
67.000000	79.329	-83.9826
68.000000	79.583	-84.6829
69.000000	79.777	-85.8395
70.000000	79.931	-87.4757
71.000000	80.085	-89.0760
72.000000	80.249	-90.1987
73.000000	80.415	-90.9337
74.000000	80.578	-91.6023
75.000000	80.740	-92.3446
76.199997	80.934	-93.3850
77.500000	81.136	-94.7500
78.800003	81.336	-96.2046
80.000000	81.518	-97.4819
81.199997	81.692	-98.7869
82.500000	81.868	-100.3148
83.800003	82.053	-101.8387
85.000000	82.246	-103.0794
86.199997	82.442	-104.1340
87.500000	82.624	-105.2979
88.500000	82.740	-106.3022
90.000000	82.911	-107.8572
91.199997	83.054	-109.0358
92.500000	83.203	-110.2451
93.800003	83.337	-111.3965
95.000000	83.447	-112.4375
96.199997	83.550	-113.4996
97.500000	83.663	-114.6584
98.800003	83.786	-115.8441
100.000000	83.908	-117.0096
101.500000	84.066	-118.4807
103.000000	84.219	-119.8032
104.400002	84.350	-120.8815
106.000000	84.486	-122.1346
107.500000	84.597	-123.4925
109.000000	84.684	-124.9085
110.599998	84.774	-126.3189
112.000000	84.865	-127.4765
113.800003	84.990	-128.9553
115.000000	85.077	-129.9411
117.199997	85.230	-131.6255
118.000000	85.282	-132.2090
120.599998	85.430	-134.1280
122.000000	85.494	-135.1514
124.099998	85.584	-136.6366
125.000000	85.624	-137.2697
126.500000	85.691	-138.3615
128.000000	85.758	-139.5094
131.500000	85.882	-142.1305
132.000000	85.898	-142.4836
134.000000	85.972	-143.8801
136.000000	86.065	-145.2512
138.000000	86.156	-146.5526
140.000000	86.233	-147.8084
143.000000	86.330	-149.6882
145.000000	86.392	-150.9459
147.500000	86.455	-152.4600
150.000000	86.513	-153.8932
152.500000	86.571	-155.3251
155.000000	86.622	-156.8366
157.500000	86.669	-158.3108
160.000000	86.714	-159.7086
162.500000	86.754	-161.0331
165.000000	86.789	-162.2866
167.500000	86.813	-163.4578
170.000000	86.826	-164.5631
172.500000	86.832	-165.6473
175.000000	86.845	-166.7345
177.500000	86.861	-167.7859
180.000000	86.873	-168.7598
182.500000	86.882	-169.7032
185.000000	86.891	-170.6957
187.500000	86.905	-171.7370
190.000000	86.925	-172.7405
192.500000	86.946	-173.6604
195.000000	86.963	-174.5313
197.500000	86.980	-175.3890
200.000000	87.000	-176.2518
203.000000	87.018	-177.3458
206.000000	87.029	-178.5163
209.000000	87.042	-179.6977
212.000000	87.053	179.1585
214.000000	87.058	178.4465
218.000000	87.063	177.1245
220.000000	87.064	176.4956
224.000000	87.078	175.3134
227.000000	87.103	174.4708
230.000000	87.133	173.6315
233.000000	87.156	172.7913
236.000000	87.164	171.9420
240.000000	87.159	170.8090
243.000000	87.155	169.9790
247.000000	87.161	168.8865
250.000000	87.169	168.0425
254.000000	87.168	166.9039
258.000000	87.150	165.7850
262.000000	87.126	164.6864
265.000000	87.105	163.8835
269.000000	87.072	162.8827
272.000000	87.041	162.2034
276.000000	86.985	161.4006
280.000000	86.920	160.6859
285.000000	86.851	159.8422
290.000000	86.802	159.0208
295.000000	86.756	158.1616
300.000000	86.707	157.2667
304.000000	86.668	156.5600
307.000000	86.638	156.0476
311.000000	86.596	155.4177
315.000000	86.555	154.8947
320.000000	86.511	154.3729
325.000000	86.477	153.9108
330.000000	86.455	153.4150
335.000000	86.446	152.8462
340.000000	86.444	152.2314
345.000000	86.440	151.6097
350.000000	86.433	150.9847
355.000000	86.426	150.3531
360.000000	86.425	149.7551
365.000000	86.432	149.1982
370.000000	86.443	148.6970
375.000000	86.453	148.2741
382.000000	86.460	147.7236
387.000000	86.459	147.2674
395.000000	86.470	146.2803
400.000000	86.493	145.5909
406.000000	86.520	144.7723
412.000000	86.534	143.9582
418.000000	86.531	143.1010
425.000000	86.520	142.1144
431.000000	86.512	141.3290
437.000000	86.507	140.6241
444.000000	86.497	139.9197
450.000000	86.489	139.4108
455.000000	86.486	139.0281
462.000000	86.483	138.5031
468.000000	86.488	138.0312
475.000000	86.504	137.5188
482.000000	86.513	137.1106
487.000000	86.508	136.8551
494.000000	86.496	136.5211
500.000000	86.495	136.2167
508.000000	86.508	135.7686
515.000000	86.525	135.4290
522.000000	86.544	135.0900
530.000000	86.566	134.5764
538.000000	86.584	134.0104
545.000000	86.593	133.5761
552.000000	86.593	133.2078
560.000000	86.594	132.7940
570.000000	86.609	132.2232
580.000000	86.635	131.6615
590.000000	86.662	131.1179
600.000000	86.683	130.5850
608.000000	86.694	130.1479
615.000000	86.703	129.7484
622.000000	86.716	129.3581
630.000000	86.739	128.9482
640.000000	86.774	128.4936
650.000000	86.805	128.1054
660.000000	86.839	127.7506
670.000000	86.880	127.3386
680.000000	86.915	126.8265
690.000000	86.936	126.3373
700.000000	86.943	125.9022
710.000000	86.944	125.4074
720.000000	86.950	124.8691
730.000000	86.964	124.4269
740.000000	86.987	124.1539
750.000000	87.013	124.0102
762.000000	87.051	123.9260
775.000000	87.106	123.8012
788.000000	87.165	123.5671
800.000000	87.213	123.2308
812.000000	87.256	122.8119
825.000000	87.300	122.3011
838.000000	87.334	121.8043
850.000000	87.357	121.4404
862.000000	87.383	121.1942
875.000000	87.411	121.0197
885.000000	87.426	120.9172
900.000000	87.428	120.7860
912.000000	87.418	120.6456
925.000000	87.404	120.4499
938.000000	87.393	120.2746
950.000000	87.396	120.1357
962.000000	87.411	119.9926
975.000000	87.433	119.8342
988.000000	87.455	119.6560
1000.000000	87.476	119.4350
1015.000000	87.502	119.0897
1030.000000	87.523	118.7525
1044.000000	87.535	118.4631
1060.000000	87.552	118.1411
1075.000000	87.582	117.8553
1090.000000	87.621	117.6179
1106.000000	87.667	117.4643
1120.000000	87.712	117.3882
1138.000000	87.771	117.3405
1150.000000	87.805	117.3367
1172.000000	87.861	117.3887
1180.000000	87.883	117.4286
1206.000000	87.980	117.6140
1220.000000	88.051	117.7299
1241.000000	88.170	117.8316
1250.000000	88.221	117.8290
1265.000000	88.300	117.7779
1280.000000	88.373	117.6931
1315.000000	88.519	117.4125
1320.000000	88.536	117.3721
1340.000000	88.588	117.2677
1360.000000	88.622	117.3566
1380.000000	88.643	117.7228
1400.000000	88.654	118.3542
1430.000000	88.665	119.6590
1450.000000	88.680	120.7024
1475.000000	88.729	122.1210
1500.000000	88.807	123.5118
1525.000000	88.886	124.7924
1550.000000	88.961	125.9653
1575.000000	89.046	127.0732
1600.000000	89.154	128.2984
1625.000000	89.277	129.7865
1650.000000	89.406	131.4535
1675.000000	89.529	133.1436
1700.000000	89.636	134.8212
1725.000000	89.738	136.5338
1750.000000	89.843	138.2677
1775.000000	89.943	139.9691
1800.000000	90.030	141.6224
1825.000000	90.103	143.1827
1850.000000	90.163	144.5789
1875.000000	90.211	145.8317
1900.000000	90.260	147.0345
1925.000000	90.315	148.2910
1950.000000	90.375	149.6755
1975.000000	90.440	151.2136
2000.000000	90.520	152.9294
2030.000000	90.649	155.2614
2060.000000	90.815	157.8365
2090.000000	91.014	160.4744
2120.000000	91.237	162.9672
2140.000000	91.397	164.4823
2180.000000	91.734	167.0761
2200.000000	91.902	168.1231
2240.000000	92.240	169.7377
2270.000000	92.500	170.6555
2300.000000	92.765	171.4382
2330.000000	93.032	172.1230
2360.000000	93.299	172.7491
2400.000000	93.654	173.5109
2430.000000	93.911	173.9636
2470.000000	94.239	174.4201
2500.000000	94.480	174.7793
2540.000000	94.802	175.3995
2580.000000	95.119	176.0688
2620.000000	95.422	176.5554
2650.000000	95.631	176.6978
2690.000000	95.880	176.5613
2720.000000	96.043	176.2551
2760.000000	96.236	175.6895
2800.000000	96.407	175.0605
2850.000000	96.591	174.2961
2900.000000	96.727	173.6021
2950.000000	96.804	172.9663
3000.000000	96.829	172.3977
3040.000000	96.818	171.9561
3070.000000	96.791	171.6225
3110.000000	96.734	171.2577
3150.000000	96.660	171.1827
3200.000000	96.554	171.6967
3250.000000	96.432	172.7795
3300.000000	96.292	174.0641
3350.000000	96.135	175.2228
3400.000000	95.966	176.0906
3450.000000	95.784	176.6179
3500.000000	95.598	176.8854
3550.000000	95.414	176.9752
3600.000000	95.235	176.8871
3650.000000	95.058	176.6573
3700.000000	94.884	176.4731
3750.000000	94.711	176.5479
3820.000000	94.471	177.3021
3870.000000	94.305	178.3666
3950.000000	94.041	-179.0650
4000.000000	93.869	-176.9793
4060.000000	93.654	-174.1117
4120.000000	93.433	-170.9711
4180.000000	93.198	-167.6128
4250.000000	92.897	-163.3699
4310.000000	92.617	-159.3589
4370.000000	92.317	-154.9268
4440.000000	91.945	-149.2019
4500.000000	91.612	-143.8445
4550.000000	91.330	-139.0675
4620.000000	90.931	-131.9770
4680.000000	90.579	-125.6597
4750.000000	90.153	-118.1395
4820.000000	89.723	-110.4800
4870.000000	89.424	-104.8999
4940.000000	89.016	-96.9510
5000.000000	88.661	-90.0611
5080.000000	88.167	-80.8160
5150.000000	87.736	-72.5339
5220.000000	87.350	-63.8222
5300.000000	87.020	-53.2517
5380.000000	86.850	-42.3191
5450.000000	86.829	-33.1320
5520.000000	86.883	-24.8321
5600.000000	86.973	-16.2528
5700.000000	87.066	-5.9251
5800.000000	87.120	4.7017
5900.000000	87.140	16.2636
6000.000000	87.196	29.1235
6080.000000	87.334	39.8281
6150.000000	87.529	49.0049
6220.000000	87.769	57.8420
6300.000000	88.068	67.5018
6400.000000	88.418	78.8370
6500.000000	88.673	89.3697
6600.000000	88.809	99.2899
6700.000000	88.835	108.9667
6800.000000	88.775	118.7085
6900.000000	88.651	128.7246
7000.000000	88.493	138.9462
7100.000000	88.318	148.9850
7200.000000	88.124	158.4505
7300.000000	87.896	167.2659
7400.000000	87.616	175.7703
7500.000000	87.265	-175.6262
7620.000000	86.728	-164.8788
7750.000000	86.000	-152.2841
7880.000000	85.129	-138.1109
8000.000000	84.230	-123.2158
8120.000000	83.285	-106.7774
8250.000000	82.227	-87.7413
8380.000000	81.134	-67.9606
8500.000000	80.087	-49.6847
8620.000000	78.975	-31.4426
8750.000000	77.676	-11.4583
8850.000000	76.607	4.0403
9000.000000	74.901	27.6387
9120.000000	73.491	47.7188
9250.000000	72.016	72.1301
9380.000000	70.723	99.4392
9500.000000	69.759	125.5471
9620.000000	69.000	150.8794
9750.000000	68.350	176.4609
9880.000000	67.805	-159.9744
10000.000000	67.333	-139.4221
10150.000000	66.703	-115.3436
10300.000000	65.929	-94.1540
10440.000000	64.959	-77.3665
10600.000000	63.481	-61.3713
10750.000000	61.832	-50.0258
10900.000000	60.304	-47.3940
11060.000000	59.482	-66.8987
11200.000000	59.651	-79.4159
11380.000000	60.800	-62.7495
11500.000000	61.897	-45.1132
11720.000000	63.999	-15.6050
11800.000000	64.662	-5.5644
12060.000000	66.122	28.9133
12200.000000	66.436	50.1523
12410.000000	66.434	86.2854
12500.000000	66.363	103.6868
12650.000000	66.338	136.5691
12800.000000	66.617	176.6952
13150.000000	68.773	-82.3844
13200.000000	69.184	-69.8853
13400.000000	70.841	-25.4290
13600.000000	72.299	9.9659
13800.000000	73.380	38.2474
14000.000000	73.996	62.4016
14300.000000	74.042	97.4266
14500.000000	73.555	122.3945
14750.000000	72.482	156.1133
15000.000000	71.039	-166.7671
15250.000000	69.396	-124.4880
15500.000000	67.775	-76.6804
15750.000000	66.501	-21.3904
16000.000000	65.930	71.4537
16250.000000	66.078	146.0870
16500.000000	66.569	-174.6301
16750.000000	67.179	-137.7263
17000.000000	67.974	-92.3105
17250.000000	69.089	-36.6606
17500.000000	70.542	19.1455
17750.000000	72.183	70.0991
18000.000000	73.807	115.0173
18250.000000	75.249	154.7188
18500.000000	76.424	-168.0967
18750.000000	77.282	-133.8135
19000.000000	77.737	-104.0037
19250.000000	77.698	-77.7700
19500.000000	77.176	-51.8645
19750.000000	76.378	-24.0994
20000.000000	75.767	-2.5808
