* Measurement data measured by REW V5.31.3
* Source: Microphone (4- USB Audio Device), no input selected, R, volume: no control
* Format: 256k Log Swept Sine, 1 sweep at -12.0 dBFS with no timing reference
* Dated: 18-Oct-2024 10:43:38
* REW Settings:
*  C-weighting compensation: Off
*  Target level: 75.0 dB
* Note: 
* Measurement: Moondrop Moca L
* Smoothing: 1/12 octave
* Frequency Step: 1/48 octave
* Start Frequency: 20.300 Hz
*
* Freq(Hz)	SPL(dB)	Phase(degrees)
20.299999	69.965	50.3876
20.600000	69.969	49.6575
20.900000	69.972	48.8279
21.200001	69.976	48.0533
21.400000	69.983	47.5853
21.799999	70.012	46.7284
22.000000	70.033	46.3149
22.400000	70.077	45.4787
22.700001	70.107	44.8414
23.000000	70.133	44.2105
23.299999	70.155	43.6007
23.600000	70.176	43.0179
24.000000	70.208	42.2774
24.299999	70.234	41.7473
24.700001	70.269	41.0935
25.000000	70.294	40.6712
25.400000	70.329	40.2373
25.799999	70.371	39.9493
26.200001	70.426	39.7391
26.500000	70.473	39.5668
26.900000	70.536	39.2409
27.200001	70.577	38.9003
27.600000	70.615	38.3276
28.000000	70.634	37.6645
28.500000	70.640	36.7942
29.000000	70.641	35.9640
29.500000	70.648	35.2569
30.000000	70.665	34.7413
30.400000	70.689	34.4741
30.700001	70.714	34.3338
31.100000	70.751	34.1728
31.500000	70.786	33.9810
32.000000	70.811	33.6439
32.500000	70.808	33.2037
33.000000	70.787	32.6854
33.500000	70.767	32.0742
34.000000	70.760	31.3336
34.500000	70.764	30.4845
35.000000	70.771	29.6383
35.500000	70.778	28.9294
36.000000	70.788	28.4168
36.500000	70.799	28.0556
37.000000	70.804	27.7538
37.500000	70.798	27.4361
38.200001	70.780	26.8872
38.700001	70.772	26.4044
39.500000	70.769	25.6050
40.000000	70.770	25.2382
40.599998	70.777	25.0018
41.200001	70.795	24.8323
41.799999	70.813	24.4904
42.500000	70.815	23.7984
43.099998	70.805	23.1382
43.700001	70.802	22.6080
44.400002	70.811	22.2312
45.000000	70.815	22.0816
45.500000	70.810	22.0283
46.200001	70.805	21.9204
46.799999	70.814	21.6664
47.500000	70.832	21.2109
48.200001	70.842	20.8556
48.700001	70.848	20.7670
49.400002	70.859	20.7478
50.000000	70.865	20.6146
50.799999	70.858	20.1296
51.500000	70.848	19.5370
52.200001	70.849	18.9403
53.000000	70.851	18.3807
53.799999	70.839	18.0183
54.500000	70.823	17.8112
55.200001	70.812	17.6154
56.000000	70.809	17.3815
57.000000	70.803	17.1271
58.000000	70.780	16.8764
59.000000	70.757	16.5034
60.000000	70.768	15.9283
60.799999	70.785	15.3783
61.500000	70.787	14.9452
62.200001	70.774	14.6168
63.000000	70.756	14.3353
64.000000	70.748	14.0020
65.000000	70.750	13.6513
66.000000	70.746	13.2955
67.000000	70.735	12.9412
68.000000	70.729	12.6038
69.000000	70.734	12.3020
70.000000	70.734	12.0312
71.000000	70.720	11.7391
72.000000	70.699	11.3915
73.000000	70.685	11.0147
74.000000	70.679	10.6618
75.000000	70.667	10.3624
76.199997	70.636	10.0444
77.500000	70.605	9.7182
78.800003	70.592	9.4342
80.000000	70.584	9.1909
81.199997	70.574	8.9014
82.500000	70.557	8.5569
83.800003	70.532	8.2185
85.000000	70.504	7.9126
86.199997	70.485	7.6261
87.500000	70.477	7.3604
88.500000	70.474	7.1822
90.000000	70.463	6.9083
91.199997	70.442	6.6617
92.500000	70.415	6.4083
93.800003	70.392	6.1820
95.000000	70.370	5.9499
96.199997	70.341	5.6801
97.500000	70.300	5.3883
98.800003	70.255	5.1392
100.000000	70.217	4.9351
101.500000	70.180	4.6606
103.000000	70.142	4.3707
104.400002	70.104	4.1238
106.000000	70.062	3.8534
107.500000	70.023	3.5723
109.000000	69.984	3.2848
110.599998	69.944	3.0336
112.000000	69.908	2.8514
113.800003	69.855	2.6576
115.000000	69.816	2.5737
117.199997	69.754	2.4564
118.000000	69.734	2.4065
120.599998	69.656	2.2301
122.000000	69.603	2.1387
124.099998	69.520	1.9956
125.000000	69.488	1.9242
126.500000	69.442	1.7803
128.000000	69.403	1.6295
131.500000	69.291	1.4676
132.000000	69.273	1.4712
134.000000	69.205	1.5356
136.000000	69.147	1.6325
138.000000	69.093	1.6891
140.000000	69.037	1.6632
143.000000	68.951	1.5171
145.000000	68.899	1.4860
147.500000	68.837	1.6236
150.000000	68.761	1.8280
152.500000	68.671	2.0253
155.000000	68.585	2.2353
157.500000	68.511	2.4628
160.000000	68.441	2.6124
162.500000	68.368	2.6981
165.000000	68.287	2.7835
167.500000	68.207	2.8751
170.000000	68.125	2.9645
172.500000	68.038	3.1037
175.000000	67.950	3.3223
177.500000	67.866	3.5820
180.000000	67.786	3.8334
182.500000	67.707	4.0941
185.000000	67.629	4.3996
187.500000	67.550	4.7588
190.000000	67.468	5.1841
192.500000	67.385	5.6812
195.000000	67.305	6.2321
197.500000	67.234	6.7922
200.000000	67.175	7.3161
203.000000	67.113	7.8936
206.000000	67.045	8.4660
209.000000	66.968	9.0790
212.000000	66.891	9.7476
214.000000	66.844	10.2076
218.000000	66.757	11.1502
220.000000	66.715	11.6331
224.000000	66.633	12.6119
227.000000	66.573	13.3224
230.000000	66.514	14.0294
233.000000	66.457	14.8175
236.000000	66.400	15.7108
240.000000	66.309	16.9787
243.000000	66.244	17.9559
247.000000	66.196	19.3333
250.000000	66.192	20.3874
254.000000	66.219	21.6547
258.000000	66.267	22.6738
262.000000	66.308	23.4942
265.000000	66.326	24.0595
269.000000	66.335	24.7666
272.000000	66.337	25.2860
276.000000	66.340	25.9910
280.000000	66.346	26.7240
285.000000	66.356	27.6993
290.000000	66.366	28.7145
295.000000	66.370	29.7229
300.000000	66.364	30.7496
304.000000	66.363	31.5288
307.000000	66.366	32.0713
311.000000	66.375	32.7808
315.000000	66.386	33.5364
320.000000	66.402	34.5975
325.000000	66.423	35.7623
330.000000	66.450	36.9117
335.000000	66.480	38.0101
340.000000	66.508	39.1181
345.000000	66.537	40.2453
350.000000	66.564	41.3583
355.000000	66.584	42.4285
360.000000	66.597	43.4340
365.000000	66.605	44.3903
370.000000	66.614	45.3441
375.000000	66.623	46.3041
382.000000	66.633	47.5896
387.000000	66.645	48.5030
395.000000	66.676	50.0141
400.000000	66.695	50.9293
406.000000	66.714	51.9306
412.000000	66.719	52.7882
418.000000	66.708	53.5407
425.000000	66.687	54.4085
431.000000	66.675	55.2019
437.000000	66.672	56.0304
444.000000	66.668	57.0056
450.000000	66.663	57.7955
455.000000	66.662	58.3997
462.000000	66.663	59.1746
468.000000	66.659	59.8027
475.000000	66.644	60.5054
482.000000	66.628	61.1580
487.000000	66.625	61.5742
494.000000	66.628	62.1006
500.000000	66.630	62.5564
508.000000	66.629	63.2309
515.000000	66.628	63.8390
522.000000	66.632	64.4160
530.000000	66.645	65.0407
538.000000	66.666	65.6819
545.000000	66.688	66.2430
552.000000	66.706	66.7788
560.000000	66.719	67.3793
570.000000	66.734	68.1361
580.000000	66.750	68.8716
590.000000	66.762	69.5852
600.000000	66.764	70.2917
608.000000	66.759	70.8501
615.000000	66.752	71.3249
622.000000	66.749	71.7921
630.000000	66.750	72.3152
640.000000	66.755	72.9592
650.000000	66.758	73.6145
660.000000	66.761	74.2979
670.000000	66.759	74.9887
680.000000	66.754	75.6585
690.000000	66.745	76.2882
700.000000	66.734	76.8813
710.000000	66.721	77.4805
720.000000	66.705	78.0783
730.000000	66.681	78.6568
740.000000	66.647	79.2451
750.000000	66.615	79.8731
762.000000	66.588	80.6951
775.000000	66.569	81.6558
788.000000	66.551	82.6059
800.000000	66.537	83.4434
812.000000	66.523	84.2808
825.000000	66.508	85.1984
838.000000	66.504	86.0962
850.000000	66.509	86.9285
862.000000	66.517	87.7984
875.000000	66.526	88.7500
885.000000	66.535	89.4566
900.000000	66.552	90.4659
912.000000	66.562	91.2576
925.000000	66.568	92.1358
938.000000	66.573	93.0554
950.000000	66.580	93.9193
962.000000	66.595	94.7745
975.000000	66.620	95.6734
988.000000	66.648	96.4947
1000.000000	66.669	97.1550
1015.000000	66.691	97.8892
1030.000000	66.723	98.5938
1044.000000	66.763	99.3060
1060.000000	66.812	100.2644
1075.000000	66.858	101.2428
1090.000000	66.901	102.2128
1106.000000	66.947	103.1972
1120.000000	66.985	104.0331
1138.000000	67.025	105.0627
1150.000000	67.044	105.6794
1172.000000	67.073	106.6372
1180.000000	67.083	106.9620
1206.000000	67.121	108.0919
1220.000000	67.145	108.7912
1241.000000	67.188	109.9617
1250.000000	67.208	110.4931
1265.000000	67.240	111.3975
1280.000000	67.270	112.2891
1315.000000	67.341	114.2160
1320.000000	67.352	114.4864
1340.000000	67.399	115.5836
1360.000000	67.452	116.7232
1380.000000	67.513	117.9258
1400.000000	67.579	119.1731
1430.000000	67.695	121.0744
1450.000000	67.795	122.3096
1475.000000	67.938	123.7032
1500.000000	68.091	124.8203
1525.000000	68.252	125.6720
1550.000000	68.421	126.4000
1575.000000	68.602	127.1169
1600.000000	68.791	127.9324
1625.000000	68.981	128.9241
1650.000000	69.174	130.0437
1675.000000	69.367	131.1871
1700.000000	69.551	132.3873
1725.000000	69.731	133.8005
1750.000000	69.920	135.5382
1775.000000	70.113	137.4818
1800.000000	70.299	139.3901
1825.000000	70.472	141.1007
1850.000000	70.637	142.6035
1875.000000	70.798	143.9627
1900.000000	70.954	145.2410
1925.000000	71.107	146.4778
1950.000000	71.257	147.6844
1975.000000	71.404	148.8584
2000.000000	71.551	149.9923
2030.000000	71.731	151.2874
2060.000000	71.909	152.4857
2090.000000	72.078	153.5537
2120.000000	72.231	154.4848
2140.000000	72.324	155.0411
2180.000000	72.501	156.0603
2200.000000	72.590	156.5684
2240.000000	72.770	157.7120
2270.000000	72.906	158.6604
2300.000000	73.040	159.5443
2330.000000	73.161	160.2614
2360.000000	73.274	160.8005
2400.000000	73.424	161.2783
2430.000000	73.531	161.4711
2470.000000	73.662	161.6105
2500.000000	73.756	161.7481
2540.000000	73.879	162.0672
2580.000000	73.996	162.4625
2620.000000	74.098	162.7382
2650.000000	74.159	162.7500
2690.000000	74.216	162.4652
2720.000000	74.245	162.0885
2760.000000	74.275	161.4536
2800.000000	74.293	160.6696
2850.000000	74.300	159.4512
2900.000000	74.298	158.1449
2950.000000	74.284	156.8931
3000.000000	74.245	155.4723
3040.000000	74.200	154.1366
3070.000000	74.163	153.0996
3110.000000	74.109	151.8183
3150.000000	74.049	150.8088
3200.000000	73.979	150.0805
3250.000000	73.917	149.8787
3300.000000	73.860	149.9349
3350.000000	73.799	149.9564
3400.000000	73.725	149.9080
3450.000000	73.650	150.0630
3500.000000	73.582	150.5583
3550.000000	73.509	151.2254
3600.000000	73.428	151.9697
3650.000000	73.348	152.8742
3700.000000	73.268	154.0442
3750.000000	73.192	155.5458
3820.000000	73.093	158.0361
3870.000000	73.022	159.7675
3950.000000	72.900	161.9969
4000.000000	72.823	163.0986
4060.000000	72.734	164.1550
4120.000000	72.642	164.8810
4180.000000	72.550	165.4303
4250.000000	72.456	166.1737
4310.000000	72.382	167.0337
4370.000000	72.310	168.1389
4440.000000	72.233	169.7965
4500.000000	72.175	171.5401
4550.000000	72.132	173.1341
4620.000000	72.076	175.3275
4680.000000	72.030	177.0389
4750.000000	71.988	178.9497
4820.000000	71.958	-179.0446
4870.000000	71.942	-177.5248
4940.000000	71.927	-175.3270
5000.000000	71.921	-173.5021
5080.000000	71.913	-171.3292
5150.000000	71.912	-169.5815
5220.000000	71.925	-167.7507
5300.000000	71.958	-165.3570
5380.000000	72.003	-162.6470
5450.000000	72.041	-160.1238
5520.000000	72.071	-157.5333
5600.000000	72.080	-154.6772
5700.000000	72.018	-151.6862
5800.000000	71.859	-149.3610
5900.000000	71.621	-147.2888
6000.000000	71.317	-145.4002
6080.000000	71.037	-144.1810
6150.000000	70.786	-143.1646
6220.000000	70.549	-141.9292
6300.000000	70.307	-140.1881
6400.000000	70.041	-137.8825
6500.000000	69.817	-135.6655
6600.000000	69.651	-133.4453
6700.000000	69.545	-131.2940
6800.000000	69.497	-129.4509
6900.000000	69.512	-128.0121
7000.000000	69.600	-126.8127
7100.000000	69.764	-125.6599
7200.000000	70.000	-124.5490
7300.000000	70.301	-123.6186
7400.000000	70.668	-123.0278
7500.000000	71.100	-123.0659
7620.000000	71.681	-124.6376
7750.000000	72.320	-129.0586
7880.000000	72.862	-136.4836
8000.000000	73.169	-145.3917
8120.000000	73.197	-155.4804
8250.000000	72.860	-166.6519
8380.000000	72.177	-176.5135
8500.000000	71.321	176.5952
8620.000000	70.336	171.9780
8750.000000	69.222	169.2056
8850.000000	68.381	168.3130
9000.000000	67.190	168.1687
9120.000000	66.310	168.4626
9250.000000	65.432	168.5709
9380.000000	64.631	168.1081
9500.000000	63.961	167.3696
9620.000000	63.358	166.7438
9750.000000	62.774	166.5799
9880.000000	62.253	167.1053
10000.000000	61.820	168.1030
10150.000000	61.330	169.8792
10300.000000	60.900	172.3605
10440.000000	60.560	175.4062
10600.000000	60.253	179.6156
10750.000000	60.045	-175.9569
10900.000000	59.902	-171.3165
11060.000000	59.814	-166.5027
11200.000000	59.787	-162.8830
11380.000000	59.825	-159.3881
11500.000000	59.901	-157.4702
11720.000000	60.182	-153.9161
11800.000000	60.333	-152.6492
12060.000000	61.028	-149.8657
12200.000000	61.551	-149.6050
12410.000000	62.579	-150.4985
12500.000000	63.122	-151.3012
12650.000000	64.174	-153.4910
12800.000000	65.396	-157.2065
13150.000000	68.482	-174.4998
13200.000000	68.876	-178.1626
13400.000000	70.098	164.0648
13600.000000	70.499	142.4548
13800.000000	69.934	119.9894
14000.000000	68.537	99.9900
14300.000000	65.564	78.3660
14500.000000	63.437	69.0076
14750.000000	60.975	60.3559
15000.000000	58.887	53.3768
15250.000000	57.181	48.0319
15500.000000	55.802	43.8628
15750.000000	54.673	38.9268
16000.000000	53.715	31.4287
16250.000000	52.901	21.7248
16500.000000	52.211	11.2147
16750.000000	51.572	0.7168
17000.000000	50.846	-9.4297
17250.000000	49.841	-18.5647
17500.000000	48.429	-24.8568
17750.000000	46.661	-24.5748
18000.000000	45.003	-12.3420
18250.000000	44.318	9.5234
18500.000000	44.771	25.3944
18750.000000	45.728	32.6406
19000.000000	46.825	35.3899
19250.000000	47.939	35.8163
19500.000000	48.934	34.9884
19750.000000	49.665	33.7071
20000.000000	50.035	32.7484
