* Measurement data measured by REW V5.31.3
* Source: Microphone (4- USB Audio Device), no input selected, R, volume: no control
* Format: 256k Log Swept Sine, 1 sweep at -12.0 dBFS with no timing reference
* Dated: 18-Oct-2024 14:19:00
* REW Settings:
*  C-weighting compensation: Off
*  Target level: 75.0 dB
* Note: 
* Measurement: Moca Solis Bass R
* Smoothing: 1/12 octave
* Frequency Step: 1/48 octave
* Start Frequency: 20.300 Hz
*
* Freq(Hz)	SPL(dB)	Phase(degrees)
20.299999	69.879	47.3527
20.600000	69.928	46.9363
20.900000	69.994	46.3710
21.200001	70.067	45.7071
21.400000	70.116	45.2250
21.799999	70.209	44.2071
22.000000	70.251	43.6913
22.400000	70.327	42.6902
22.700001	70.378	41.9869
23.000000	70.424	41.3271
23.299999	70.468	40.7006
23.600000	70.507	40.0928
24.000000	70.553	39.2930
24.299999	70.580	38.6995
24.700001	70.606	37.9293
25.000000	70.621	37.3783
25.400000	70.640	36.6839
25.799999	70.659	36.0238
26.200001	70.680	35.3772
26.500000	70.696	34.8931
26.900000	70.715	34.2484
27.200001	70.728	33.7672
27.600000	70.748	33.1235
28.000000	70.773	32.4581
28.500000	70.812	31.5606
29.000000	70.852	30.5870
29.500000	70.886	29.5919
30.000000	70.911	28.6457
30.400000	70.925	27.9491
30.700001	70.933	27.4650
31.100000	70.939	26.8729
31.500000	70.941	26.3472
32.000000	70.948	25.7773
32.500000	70.972	25.2453
33.000000	71.014	24.6432
33.500000	71.061	23.8999
34.000000	71.089	23.0528
34.500000	71.089	22.2189
35.000000	71.066	21.5000
35.500000	71.033	20.9154
36.000000	71.004	20.4115
36.500000	70.985	19.9184
37.000000	70.978	19.3947
37.500000	70.979	18.8386
38.200001	70.991	18.0550
38.700001	71.004	17.5241
39.500000	71.026	16.7075
40.000000	71.034	16.1846
40.599998	71.036	15.5414
41.200001	71.037	14.9033
41.799999	71.048	14.2631
42.500000	71.066	13.4809
43.099998	71.072	12.8132
43.700001	71.062	12.2229
44.400002	71.043	11.6616
45.000000	71.033	11.2355
45.500000	71.030	10.8802
46.200001	71.025	10.3665
46.799999	71.014	9.9123
47.500000	70.990	9.3575
48.200001	70.957	8.7723
48.700001	70.936	8.3436
49.400002	70.923	7.7429
50.000000	70.926	7.2432
50.799999	70.940	6.6366
51.500000	70.948	6.1827
52.200001	70.954	5.7712
53.000000	70.966	5.2728
53.799999	70.981	4.7103
54.500000	70.989	4.2114
55.200001	70.985	3.7628
56.000000	70.964	3.3316
57.000000	70.923	2.8683
58.000000	70.884	2.4058
59.000000	70.855	1.9068
60.000000	70.836	1.3824
60.799999	70.828	0.9493
61.500000	70.826	0.5619
62.200001	70.827	0.1691
63.000000	70.825	-0.2770
64.000000	70.811	-0.8064
65.000000	70.784	-1.2994
66.000000	70.754	-1.7566
67.000000	70.730	-2.1663
68.000000	70.712	-2.5569
69.000000	70.694	-2.9664
70.000000	70.674	-3.3970
71.000000	70.654	-3.8238
72.000000	70.634	-4.2152
73.000000	70.613	-4.5540
74.000000	70.592	-4.8448
75.000000	70.577	-5.1263
76.199997	70.570	-5.5197
77.500000	70.556	-5.9917
78.800003	70.525	-6.4295
80.000000	70.491	-6.8122
81.199997	70.460	-7.1941
82.500000	70.433	-7.6311
83.800003	70.406	-8.1119
85.000000	70.379	-8.5666
86.199997	70.349	-9.0308
87.500000	70.315	-9.5600
88.500000	70.288	-9.9721
90.000000	70.250	-10.5737
91.199997	70.222	-11.0339
92.500000	70.189	-11.5044
93.800003	70.156	-11.9634
95.000000	70.131	-12.3952
96.199997	70.109	-12.8105
97.500000	70.082	-13.2019
98.800003	70.045	-13.5405
100.000000	70.007	-13.8365
101.500000	69.960	-14.2040
103.000000	69.916	-14.5876
104.400002	69.872	-14.9620
106.000000	69.826	-15.4046
107.500000	69.791	-15.8236
109.000000	69.758	-16.2113
110.599998	69.724	-16.5592
112.000000	69.694	-16.8156
113.800003	69.655	-17.1334
115.000000	69.629	-17.3544
117.199997	69.575	-17.7456
118.000000	69.555	-17.8820
120.599998	69.492	-18.3249
122.000000	69.456	-18.5637
124.099998	69.397	-18.8915
125.000000	69.371	-19.0211
126.500000	69.326	-19.2412
128.000000	69.282	-19.4644
131.500000	69.189	-19.8631
132.000000	69.176	-19.9040
134.000000	69.132	-20.0543
136.000000	69.096	-20.2301
138.000000	69.060	-20.5054
140.000000	69.020	-20.8933
143.000000	68.955	-21.5315
145.000000	68.913	-21.9526
147.500000	68.857	-22.4268
150.000000	68.798	-22.8159
152.500000	68.736	-23.2013
155.000000	68.675	-23.6210
157.500000	68.615	-24.0193
160.000000	68.558	-24.3632
162.500000	68.498	-24.6742
165.000000	68.438	-24.9913
167.500000	68.383	-25.2949
170.000000	68.338	-25.5597
172.500000	68.296	-25.8017
175.000000	68.247	-26.0212
177.500000	68.186	-26.2148
180.000000	68.121	-26.3962
182.500000	68.060	-26.5796
185.000000	68.009	-26.7567
187.500000	67.967	-26.9136
190.000000	67.926	-27.0719
192.500000	67.881	-27.2673
195.000000	67.831	-27.4909
197.500000	67.779	-27.6932
200.000000	67.726	-27.8572
203.000000	67.663	-28.0376
206.000000	67.601	-28.2166
209.000000	67.541	-28.3969
212.000000	67.487	-28.5769
214.000000	67.454	-28.6893
218.000000	67.394	-28.8684
220.000000	67.364	-28.9279
224.000000	67.305	-28.9745
227.000000	67.267	-28.9703
230.000000	67.243	-28.9808
233.000000	67.234	-29.0572
236.000000	67.235	-29.2352
240.000000	67.239	-29.6078
243.000000	67.240	-29.9543
247.000000	67.238	-30.4347
250.000000	67.231	-30.7709
254.000000	67.215	-31.1714
258.000000	67.192	-31.5401
262.000000	67.162	-31.9275
265.000000	67.136	-32.2276
269.000000	67.104	-32.6219
272.000000	67.085	-32.9098
276.000000	67.062	-33.2873
280.000000	67.038	-33.6594
285.000000	67.004	-34.1039
290.000000	66.969	-34.5918
295.000000	66.933	-35.1700
300.000000	66.900	-35.7729
304.000000	66.877	-36.2078
307.000000	66.861	-36.4945
311.000000	66.842	-36.8307
315.000000	66.826	-37.1163
320.000000	66.807	-37.4069
325.000000	66.795	-37.6398
330.000000	66.787	-37.8332
335.000000	66.770	-37.9857
340.000000	66.744	-38.0013
345.000000	66.717	-37.8811
350.000000	66.691	-37.7122
355.000000	66.661	-37.4953
360.000000	66.628	-37.2166
365.000000	66.596	-36.9130
370.000000	66.568	-36.5890
375.000000	66.548	-36.2343
382.000000	66.516	-35.7214
387.000000	66.483	-35.3621
395.000000	66.428	-34.8092
400.000000	66.396	-34.4757
406.000000	66.354	-34.0710
412.000000	66.311	-33.6194
418.000000	66.272	-33.1120
425.000000	66.233	-32.4460
431.000000	66.201	-31.8040
437.000000	66.170	-31.1148
444.000000	66.138	-30.3132
450.000000	66.117	-29.6436
455.000000	66.100	-29.0868
462.000000	66.069	-28.3127
468.000000	66.039	-27.6538
475.000000	66.003	-26.8633
482.000000	65.970	-26.0467
487.000000	65.945	-25.4565
494.000000	65.910	-24.6281
500.000000	65.885	-23.8886
508.000000	65.866	-22.7826
515.000000	65.856	-21.7385
522.000000	65.845	-20.6940
530.000000	65.828	-19.5105
538.000000	65.810	-18.3368
545.000000	65.797	-17.3108
552.000000	65.789	-16.2866
560.000000	65.786	-15.1320
570.000000	65.785	-13.7284
580.000000	65.778	-12.4021
590.000000	65.761	-11.1934
600.000000	65.737	-10.0494
608.000000	65.719	-9.1264
615.000000	65.706	-8.3168
622.000000	65.692	-7.5333
630.000000	65.675	-6.6902
640.000000	65.653	-5.7267
650.000000	65.633	-4.8430
660.000000	65.615	-3.9340
670.000000	65.603	-2.9590
680.000000	65.594	-1.9306
690.000000	65.583	-0.8657
700.000000	65.568	0.1693
710.000000	65.546	1.1424
720.000000	65.521	2.0706
730.000000	65.501	3.0029
740.000000	65.489	3.9824
750.000000	65.482	4.9729
762.000000	65.477	6.0533
775.000000	65.463	7.0123
788.000000	65.431	7.7140
800.000000	65.395	8.1333
812.000000	65.368	8.3932
825.000000	65.347	8.6129
838.000000	65.335	8.8397
850.000000	65.331	9.0557
862.000000	65.330	9.2378
875.000000	65.328	9.3771
885.000000	65.327	9.4330
900.000000	65.326	9.4012
912.000000	65.323	9.2911
925.000000	65.322	9.0808
938.000000	65.329	8.7568
950.000000	65.341	8.4174
962.000000	65.358	8.1181
975.000000	65.380	7.8563
988.000000	65.404	7.6150
1000.000000	65.425	7.3735
1015.000000	65.452	7.0331
1030.000000	65.477	6.6670
1044.000000	65.502	6.3417
1060.000000	65.533	6.0209
1075.000000	65.564	5.7563
1090.000000	65.595	5.5410
1106.000000	65.628	5.4126
1120.000000	65.660	5.3473
1138.000000	65.704	5.1824
1150.000000	65.731	4.9789
1172.000000	65.770	4.4504
1180.000000	65.782	4.2253
1206.000000	65.833	3.4854
1220.000000	65.874	3.1252
1241.000000	65.942	2.6004
1250.000000	65.970	2.3642
1265.000000	66.016	1.9710
1280.000000	66.063	1.6013
1315.000000	66.168	0.9161
1320.000000	66.182	0.8464
1340.000000	66.238	0.6411
1360.000000	66.296	0.5261
1380.000000	66.356	0.5108
1400.000000	66.419	0.5752
1430.000000	66.549	0.6761
1450.000000	66.657	0.6818
1475.000000	66.811	0.6314
1500.000000	66.993	0.4822
1525.000000	67.197	0.2102
1550.000000	67.418	-0.2406
1575.000000	67.654	-0.8957
1600.000000	67.898	-1.6961
1625.000000	68.144	-2.6605
1650.000000	68.383	-3.7904
1675.000000	68.614	-5.0656
1700.000000	68.845	-6.4227
1725.000000	69.078	-7.7769
1750.000000	69.314	-9.0606
1775.000000	69.551	-10.2835
1800.000000	69.784	-11.5198
1825.000000	70.007	-12.8460
1850.000000	70.211	-14.3288
1875.000000	70.395	-15.9820
1900.000000	70.561	-17.7203
1925.000000	70.716	-19.4281
1950.000000	70.867	-21.0406
1975.000000	71.016	-22.5383
2000.000000	71.162	-23.9574
2030.000000	71.331	-25.7104
2060.000000	71.487	-27.7037
2090.000000	71.636	-29.9943
2120.000000	71.785	-32.4821
2140.000000	71.886	-34.1688
2180.000000	72.087	-37.4126
2200.000000	72.185	-38.9056
2240.000000	72.373	-41.5977
2270.000000	72.511	-43.4732
2300.000000	72.648	-45.3339
2330.000000	72.785	-47.2122
2360.000000	72.919	-49.0861
2400.000000	73.094	-51.5781
2430.000000	73.224	-53.5058
2470.000000	73.387	-56.2704
2500.000000	73.500	-58.5030
2540.000000	73.641	-61.6561
2580.000000	73.763	-65.0040
2620.000000	73.864	-68.4840
2650.000000	73.929	-71.0395
2690.000000	74.009	-74.1749
2720.000000	74.065	-76.3128
2760.000000	74.126	-79.0137
2800.000000	74.165	-81.7070
2850.000000	74.192	-85.2324
2900.000000	74.199	-88.9395
2950.000000	74.179	-92.6262
3000.000000	74.135	-95.7893
3040.000000	74.093	-97.3190
3070.000000	74.068	-97.5696
3110.000000	74.047	-96.6595
3150.000000	74.024	-94.6411
3200.000000	73.987	-91.2543
3250.000000	73.944	-87.4902
3300.000000	73.898	-83.6873
3350.000000	73.851	-79.9318
3400.000000	73.806	-76.2877
3450.000000	73.752	-72.9266
3500.000000	73.680	-69.9235
3550.000000	73.598	-67.0615
3600.000000	73.519	-64.0280
3650.000000	73.447	-60.6936
3700.000000	73.374	-57.1266
3750.000000	73.298	-53.4124
3820.000000	73.192	-48.0780
3870.000000	73.118	-44.3066
3950.000000	72.995	-38.4843
4000.000000	72.915	-34.9397
4060.000000	72.822	-30.8591
4120.000000	72.725	-27.1390
4180.000000	72.620	-23.7546
4250.000000	72.499	-19.7739
4310.000000	72.408	-15.9304
4370.000000	72.330	-11.5779
4440.000000	72.251	-5.8913
4500.000000	72.192	-0.5173
4550.000000	72.151	4.2658
4620.000000	72.102	11.2736
4680.000000	72.063	17.4280
4750.000000	72.021	24.6670
4820.000000	71.980	31.8923
4870.000000	71.950	36.9885
4940.000000	71.908	43.9982
5000.000000	71.874	49.9253
5080.000000	71.834	57.7721
5150.000000	71.804	64.6227
5220.000000	71.776	71.5030
5300.000000	71.741	79.3382
5380.000000	71.693	86.8509
5450.000000	71.626	92.9139
5520.000000	71.525	98.5013
5600.000000	71.363	104.5880
5700.000000	71.099	112.2977
5800.000000	70.778	120.5023
5900.000000	70.417	129.7442
6000.000000	70.058	140.7052
6080.000000	69.795	150.6398
6150.000000	69.591	159.7958
6220.000000	69.416	169.1181
6300.000000	69.255	179.8925
6400.000000	69.118	-166.2436
6500.000000	69.052	-151.7020
6600.000000	69.063	-136.3438
6700.000000	69.151	-120.4244
6800.000000	69.310	-104.5590
6900.000000	69.544	-89.0995
7000.000000	69.855	-74.2817
7100.000000	70.233	-60.2310
7200.000000	70.672	-46.9092
7300.000000	71.163	-34.7889
7400.000000	71.680	-25.3005
7500.000000	72.164	-20.1866
7620.000000	72.603	-20.5779
7750.000000	72.820	-26.6974
7880.000000	72.692	-35.1060
8000.000000	72.243	-42.6991
8120.000000	71.528	-49.0248
8250.000000	70.544	-54.1427
8380.000000	69.453	-57.4631
8500.000000	68.444	-59.0952
8620.000000	67.480	-59.8474
8750.000000	66.515	-59.9154
8850.000000	65.834	-59.1816
9000.000000	64.937	-56.0218
9120.000000	64.329	-51.7250
9250.000000	63.756	-45.8987
9380.000000	63.250	-39.1343
9500.000000	62.839	-32.2478
9620.000000	62.481	-25.0127
9750.000000	62.151	-16.9869
9880.000000	61.876	-8.9296
10000.000000	61.665	-1.5438
10150.000000	61.465	7.6334
10300.000000	61.347	16.8733
10440.000000	61.320	25.6211
10600.000000	61.393	35.5780
10750.000000	61.557	44.6082
10900.000000	61.812	53.1179
11060.000000	62.190	61.4334
11200.000000	62.632	68.2201
11380.000000	63.397	76.7994
11500.000000	64.045	82.2074
11720.000000	65.517	89.4086
11800.000000	66.137	90.7000
12060.000000	68.326	89.3882
12200.000000	69.457	85.2838
12410.000000	70.740	75.1400
12500.000000	71.043	69.6293
12650.000000	71.134	59.6034
12800.000000	70.692	49.5161
13150.000000	68.107	31.5330
13200.000000	67.638	29.8717
13400.000000	65.704	25.4630
13600.000000	63.860	24.0363
13800.000000	62.246	24.7043
14000.000000	60.913	26.4338
14300.000000	59.414	28.0446
14500.000000	58.723	27.2316
14750.000000	58.198	24.1382
15000.000000	58.022	19.2620
15250.000000	58.149	13.0400
15500.000000	58.468	5.1613
15750.000000	58.743	-5.0718
16000.000000	58.649	-17.7583
16250.000000	57.870	-32.5552
16500.000000	56.264	-48.3992
16750.000000	53.923	-63.4971
17000.000000	51.076	-75.9261
17250.000000	47.969	-84.1598
17500.000000	44.865	-87.0531
17750.000000	42.123	-81.8040
18000.000000	40.273	-62.2647
18250.000000	39.718	-31.1446
18500.000000	40.184	-9.8983
18750.000000	41.152	0.0714
19000.000000	42.358	4.3226
19250.000000	43.648	4.8088
19500.000000	44.820	2.7932
19750.000000	45.678	-0.1005
20000.000000	46.102	-2.1537
