* Measurement data measured by REW V5.31.3
* Source: Microphone (4- USB Audio Device), no input selected, R, volume: no control
* Format: 256k Log Swept Sine, 1 sweep at -12.0 dBFS with no timing reference
* Dated: 18-Oct-2024 11:34:51
* REW Settings:
*  C-weighting compensation: Off
*  Target level: 75.0 dB
* Note: 
* Measurement: Moondrop Moca Ref ANC R
* Smoothing: 1/12 octave
* Frequency Step: 1/48 octave
* Start Frequency: 20.300 Hz
*
* Freq(Hz)	SPL(dB)	Phase(degrees)
20.299999	70.326	25.3200
20.600000	70.267	24.6316
20.900000	70.191	23.8910
21.200001	70.111	23.2438
21.400000	70.061	22.8707
21.799999	69.975	22.1967
22.000000	69.937	21.8601
22.400000	69.865	21.1336
22.700001	69.808	20.5408
23.000000	69.745	19.9360
23.299999	69.678	19.3584
23.600000	69.611	18.8432
24.000000	69.529	18.2875
24.299999	69.476	17.9715
24.700001	69.416	17.6644
25.000000	69.375	17.5009
25.400000	69.319	17.3493
25.799999	69.256	17.2570
26.200001	69.188	17.2083
26.500000	69.137	17.1880
26.900000	69.075	17.1595
27.200001	69.037	17.1197
27.600000	69.002	17.0231
28.000000	68.982	16.8764
28.500000	68.969	16.6672
29.000000	68.956	16.5189
29.500000	68.936	16.5049
30.000000	68.908	16.6253
30.400000	68.878	16.7798
30.700001	68.852	16.9079
31.100000	68.812	17.0803
31.500000	68.770	17.2485
32.000000	68.724	17.4443
32.500000	68.692	17.6006
33.000000	68.675	17.6938
33.500000	68.667	17.7334
34.000000	68.658	17.7607
34.500000	68.648	17.8126
35.000000	68.635	17.8990
35.500000	68.622	18.0129
36.000000	68.612	18.1486
36.500000	68.607	18.2973
37.000000	68.610	18.4355
37.500000	68.622	18.5311
38.200001	68.643	18.5642
38.700001	68.653	18.5309
39.500000	68.657	18.4577
40.000000	68.649	18.4654
40.599998	68.635	18.6115
41.200001	68.629	18.9373
41.799999	68.643	19.3752
42.500000	68.685	19.8659
43.099998	68.735	20.1809
43.700001	68.795	20.3768
44.400002	68.877	20.4422
45.000000	68.952	20.3589
45.500000	69.014	20.2175
46.200001	69.091	19.9694
46.799999	69.146	19.7273
47.500000	69.189	19.3741
48.200001	69.204	18.9210
48.700001	69.198	18.5670
49.400002	69.180	18.1024
50.000000	69.170	17.7644
50.799999	69.168	17.3619
51.500000	69.163	17.0071
52.200001	69.143	16.6447
53.000000	69.106	16.2313
53.799999	69.064	15.8214
54.500000	69.028	15.4826
55.200001	68.994	15.1766
56.000000	68.958	14.8526
57.000000	68.924	14.4752
58.000000	68.905	14.1806
59.000000	68.890	13.9766
60.000000	68.863	13.8131
60.799999	68.839	13.6854
61.500000	68.823	13.5756
62.200001	68.810	13.4900
63.000000	68.793	13.4462
64.000000	68.761	13.4453
65.000000	68.723	13.4002
66.000000	68.685	13.2461
67.000000	68.649	13.0507
68.000000	68.614	12.9111
69.000000	68.582	12.8430
70.000000	68.557	12.8048
71.000000	68.538	12.7453
72.000000	68.518	12.6481
73.000000	68.494	12.5194
74.000000	68.466	12.3641
75.000000	68.432	12.2103
76.199997	68.386	12.0662
77.500000	68.336	11.9571
78.800003	68.292	11.8934
80.000000	68.258	11.8347
81.199997	68.224	11.7287
82.500000	68.186	11.6248
83.800003	68.155	11.5993
85.000000	68.129	11.6295
86.199997	68.098	11.6547
87.500000	68.056	11.6282
88.500000	68.022	11.5689
90.000000	67.975	11.4564
91.199997	67.939	11.3858
92.500000	67.897	11.3556
93.800003	67.856	11.3712
95.000000	67.825	11.3963
96.199997	67.798	11.4106
97.500000	67.767	11.4303
98.800003	67.734	11.4604
100.000000	67.701	11.4732
101.500000	67.658	11.4701
103.000000	67.614	11.4927
104.400002	67.572	11.5471
106.000000	67.521	11.6017
107.500000	67.471	11.6339
109.000000	67.420	11.6566
110.599998	67.367	11.6770
112.000000	67.320	11.7115
113.800003	67.261	11.8110
115.000000	67.224	11.9148
117.199997	67.159	12.1565
118.000000	67.135	12.2532
120.599998	67.055	12.5104
122.000000	67.011	12.6137
124.099998	66.937	12.7962
125.000000	66.904	12.9040
126.500000	66.853	13.1273
128.000000	66.810	13.3838
131.500000	66.718	14.0000
132.000000	66.704	14.0882
134.000000	66.648	14.4068
136.000000	66.597	14.6513
138.000000	66.550	14.8983
140.000000	66.501	15.1692
143.000000	66.424	15.5635
145.000000	66.374	15.8619
147.500000	66.319	16.2748
150.000000	66.266	16.6874
152.500000	66.207	17.1109
155.000000	66.146	17.5249
157.500000	66.092	17.8889
160.000000	66.047	18.2615
162.500000	66.004	18.6846
165.000000	65.958	19.1083
167.500000	65.911	19.5434
170.000000	65.861	20.0256
172.500000	65.805	20.5432
175.000000	65.747	21.0705
177.500000	65.697	21.5696
180.000000	65.659	22.0282
182.500000	65.627	22.4635
185.000000	65.591	22.8905
187.500000	65.552	23.3162
190.000000	65.510	23.7737
192.500000	65.464	24.2925
195.000000	65.414	24.8595
197.500000	65.368	25.4633
200.000000	65.328	26.1073
203.000000	65.289	26.9347
206.000000	65.250	27.7904
209.000000	65.211	28.6332
212.000000	65.176	29.4785
214.000000	65.156	30.0569
218.000000	65.115	31.2496
220.000000	65.093	31.8682
224.000000	65.044	33.1595
227.000000	65.012	34.1839
230.000000	64.988	35.2691
233.000000	64.974	36.3974
236.000000	64.972	37.5233
240.000000	64.985	38.9767
243.000000	65.007	40.0568
247.000000	65.044	41.4661
250.000000	65.070	42.4674
254.000000	65.097	43.7413
258.000000	65.126	44.9718
262.000000	65.164	46.1607
265.000000	65.196	47.0081
269.000000	65.241	48.0897
272.000000	65.273	48.8958
276.000000	65.316	49.9758
280.000000	65.364	51.0284
285.000000	65.437	52.2432
290.000000	65.523	53.3306
295.000000	65.617	54.3329
300.000000	65.710	55.3321
304.000000	65.783	56.1079
307.000000	65.839	56.6568
311.000000	65.915	57.3450
315.000000	65.996	57.9991
320.000000	66.104	58.8149
325.000000	66.214	59.6382
330.000000	66.319	60.4170
335.000000	66.416	61.1228
340.000000	66.506	61.8130
345.000000	66.593	62.5254
350.000000	66.683	63.2208
355.000000	66.778	63.8808
360.000000	66.878	64.5016
365.000000	66.977	65.0880
370.000000	67.072	65.6868
375.000000	67.163	66.2979
382.000000	67.279	67.0371
387.000000	67.354	67.4638
395.000000	67.471	68.0737
400.000000	67.547	68.4684
406.000000	67.636	68.9156
412.000000	67.720	69.2628
418.000000	67.797	69.5530
425.000000	67.882	69.9532
431.000000	67.949	70.3436
437.000000	68.010	70.7278
444.000000	68.069	71.1447
450.000000	68.113	71.4837
455.000000	68.144	71.7993
462.000000	68.185	72.3382
468.000000	68.221	72.8601
475.000000	68.267	73.4545
482.000000	68.318	73.9710
487.000000	68.358	74.3056
494.000000	68.415	74.7587
500.000000	68.457	75.1259
508.000000	68.496	75.5276
515.000000	68.518	75.7883
522.000000	68.538	76.0184
530.000000	68.566	76.2949
538.000000	68.598	76.5584
545.000000	68.623	76.7712
552.000000	68.643	76.9890
560.000000	68.664	77.2619
570.000000	68.689	77.6061
580.000000	68.709	77.9338
590.000000	68.722	78.3183
600.000000	68.719	78.7646
608.000000	68.709	79.1237
615.000000	68.700	79.3987
622.000000	68.692	79.6251
630.000000	68.679	79.8459
640.000000	68.660	80.1555
650.000000	68.637	80.5662
660.000000	68.613	80.9952
670.000000	68.590	81.3616
680.000000	68.561	81.6597
690.000000	68.524	81.9309
700.000000	68.482	82.1763
710.000000	68.439	82.3550
720.000000	68.392	82.4596
730.000000	68.337	82.5453
740.000000	68.275	82.6601
750.000000	68.210	82.8043
762.000000	68.143	82.9998
775.000000	68.081	83.3044
788.000000	68.015	83.7372
800.000000	67.953	84.1854
812.000000	67.890	84.6216
825.000000	67.815	85.0614
838.000000	67.737	85.4519
850.000000	67.674	85.7901
862.000000	67.622	86.1354
875.000000	67.573	86.5392
885.000000	67.540	86.8830
900.000000	67.495	87.4553
912.000000	67.458	87.9813
925.000000	67.416	88.6051
938.000000	67.376	89.2392
950.000000	67.345	89.8104
962.000000	67.321	90.3808
975.000000	67.298	91.0011
988.000000	67.278	91.6209
1000.000000	67.264	92.2039
1015.000000	67.257	92.9251
1030.000000	67.256	93.6370
1044.000000	67.249	94.3055
1060.000000	67.230	95.0536
1075.000000	67.212	95.7389
1090.000000	67.199	96.4315
1106.000000	67.193	97.1713
1120.000000	67.188	97.7805
1138.000000	67.182	98.4657
1150.000000	67.176	98.8569
1172.000000	67.158	99.4771
1180.000000	67.148	99.6819
1206.000000	67.108	100.3164
1220.000000	67.089	100.6639
1241.000000	67.060	101.1845
1250.000000	67.048	101.4010
1265.000000	67.025	101.7540
1280.000000	67.003	102.1223
1315.000000	66.960	103.2272
1320.000000	66.955	103.4112
1340.000000	66.933	104.1608
1360.000000	66.912	104.9098
1380.000000	66.902	105.6714
1400.000000	66.907	106.4665
1430.000000	66.937	107.7378
1450.000000	66.976	108.5918
1475.000000	67.044	109.5653
1500.000000	67.133	110.3671
1525.000000	67.245	111.1841
1550.000000	67.381	112.2356
1575.000000	67.534	113.4992
1600.000000	67.701	114.7749
1625.000000	67.880	115.9285
1650.000000	68.068	116.9478
1675.000000	68.267	117.9145
1700.000000	68.481	118.8655
1725.000000	68.697	119.7112
1750.000000	68.906	120.3999
1775.000000	69.118	120.9912
1800.000000	69.343	121.5191
1825.000000	69.576	121.8949
1850.000000	69.807	122.0180
1875.000000	70.034	121.8732
1900.000000	70.253	121.5455
1925.000000	70.459	121.1933
1950.000000	70.655	120.9959
1975.000000	70.847	121.0702
2000.000000	71.037	121.4027
2030.000000	71.253	121.9758
2060.000000	71.453	122.6027
2090.000000	71.643	123.3183
2120.000000	71.827	124.1696
2140.000000	71.947	124.7730
2180.000000	72.180	125.8564
2200.000000	72.288	126.2737
2240.000000	72.491	126.8897
2270.000000	72.636	127.2668
2300.000000	72.778	127.6550
2330.000000	72.918	128.0437
2360.000000	73.053	128.3596
2400.000000	73.213	128.5877
2430.000000	73.320	128.6471
2470.000000	73.456	128.7295
2500.000000	73.554	128.8399
2540.000000	73.669	129.0252
2580.000000	73.768	129.3030
2620.000000	73.859	129.8249
2650.000000	73.920	130.3829
2690.000000	73.985	131.1915
2720.000000	74.020	131.7304
2760.000000	74.048	132.3051
2800.000000	74.059	132.7892
2850.000000	74.058	133.4744
2900.000000	74.057	134.4001
2950.000000	74.056	135.4629
3000.000000	74.037	136.4442
3040.000000	74.004	137.1893
3070.000000	73.977	137.8377
3110.000000	73.944	138.9136
3150.000000	73.910	140.2122
3200.000000	73.864	142.0719
3250.000000	73.822	144.1348
3300.000000	73.788	146.3127
3350.000000	73.761	148.5204
3400.000000	73.739	150.7489
3450.000000	73.717	153.0276
3500.000000	73.695	155.3584
3550.000000	73.672	157.7333
3600.000000	73.652	160.1712
3650.000000	73.632	162.7080
3700.000000	73.611	165.4111
3750.000000	73.595	168.3237
3820.000000	73.577	172.5721
3870.000000	73.564	175.5588
3950.000000	73.542	179.9249
4000.000000	73.522	-177.7453
4060.000000	73.492	-175.3199
4120.000000	73.454	-173.1467
4180.000000	73.403	-171.1592
4250.000000	73.327	-169.1041
4310.000000	73.255	-167.5239
4370.000000	73.176	-166.0249
4440.000000	73.075	-164.2312
4500.000000	72.989	-162.5254
4550.000000	72.917	-160.9280
4620.000000	72.822	-158.3734
4680.000000	72.752	-156.0470
4750.000000	72.679	-153.7118
4820.000000	72.601	-152.4193
4870.000000	72.537	-152.2444
4940.000000	72.449	-152.6738
5000.000000	72.383	-153.2076
5080.000000	72.310	-153.6855
5150.000000	72.265	-153.7576
5220.000000	72.234	-153.6436
5300.000000	72.210	-153.5799
5380.000000	72.196	-153.6775
5450.000000	72.190	-153.7862
5520.000000	72.182	-153.7908
5600.000000	72.163	-153.5586
5700.000000	72.095	-153.1001
5800.000000	71.952	-152.8388
5900.000000	71.735	-152.6591
6000.000000	71.461	-152.3079
6080.000000	71.222	-151.7732
6150.000000	71.017	-150.9845
6220.000000	70.826	-149.8136
6300.000000	70.635	-148.0132
6400.000000	70.444	-145.2934
6500.000000	70.306	-142.3707
6600.000000	70.224	-139.5090
6700.000000	70.201	-136.8188
6800.000000	70.241	-134.2637
6900.000000	70.355	-131.8248
7000.000000	70.553	-129.6364
7100.000000	70.835	-127.9727
7200.000000	71.188	-127.1118
7300.000000	71.597	-127.2048
7400.000000	72.056	-128.1736
7500.000000	72.558	-129.9460
7620.000000	73.162	-133.5386
7750.000000	73.700	-140.0898
7880.000000	73.964	-149.7711
8000.000000	73.872	-160.8306
8120.000000	73.439	-172.5412
8250.000000	72.647	175.7727
8380.000000	71.629	166.0833
8500.000000	70.588	158.9384
8620.000000	69.533	153.4143
8750.000000	68.446	149.2259
8850.000000	67.676	147.0238
9000.000000	66.634	144.4422
9120.000000	65.893	142.5019
9250.000000	65.175	140.6014
9380.000000	64.539	139.2626
9500.000000	64.026	138.7795
9620.000000	63.579	138.9818
9750.000000	63.155	139.6813
9880.000000	62.783	140.6800
10000.000000	62.491	141.8053
10150.000000	62.200	143.0989
10300.000000	61.985	143.5068
10440.000000	61.850	142.8022
10600.000000	61.788	141.1490
10750.000000	61.816	139.1298
10900.000000	61.930	136.7115
11060.000000	62.148	133.5107
11200.000000	62.421	129.7637
11380.000000	62.907	123.1363
11500.000000	63.335	117.5899
11720.000000	64.385	105.6409
11800.000000	64.868	100.8121
12060.000000	66.819	82.3793
12200.000000	68.058	69.8971
12410.000000	69.967	47.4014
12500.000000	70.715	36.4483
12650.000000	71.727	16.5152
12800.000000	72.303	-5.2851
13150.000000	71.508	-57.9862
13200.000000	71.173	-64.9511
13400.000000	69.470	-89.9059
13600.000000	67.466	-109.9280
13800.000000	65.462	-126.3494
14000.000000	63.656	-141.0813
14300.000000	61.483	-162.5209
14500.000000	60.386	-177.1364
14750.000000	59.372	164.3922
15000.000000	58.724	146.4762
15250.000000	58.409	129.2295
15500.000000	58.400	112.0794
15750.000000	58.591	93.2726
16000.000000	58.747	71.0708
16250.000000	58.548	46.2902
16500.000000	57.692	21.5375
16750.000000	56.034	-1.2672
17000.000000	53.654	-21.3646
17250.000000	50.749	-38.3409
17500.000000	47.551	-50.7841
17750.000000	44.378	-55.4508
18000.000000	41.864	-47.5656
18250.000000	40.774	-30.9202
18500.000000	41.001	-20.1831
18750.000000	41.865	-16.3907
19000.000000	43.010	-14.6392
19250.000000	44.246	-12.6122
19500.000000	45.350	-10.4363
19750.000000	46.134	-8.8289
20000.000000	46.510	-8.0808
