* Measurement data measured by REW V5.31.3
* Source: Microphone (4- USB Audio Device), MICROPHONE (Master Volume), L, volume: 0.250
* Format: 256k Log Swept Sine, 1 sweep at -12.0 dBFS with no timing reference
* Dated: 23-Aug-2024 15:44:11
* REW Settings:
*  C-weighting compensation: Off
*  Target level: 75.0 dB
* Note: 
* Measurement: Moondrop Block L
* Smoothing: 1/12 octave
* Frequency Step: 1/48 octave
* Start Frequency: 20.300 Hz
*
* Freq(Hz)	SPL(dB)	Phase(degrees)
20.299999	61.980	-3.0810
20.600000	61.902	-4.1293
20.900000	61.923	-6.3520
21.200001	62.063	-9.8227
21.400000	62.185	-12.5782
21.799999	62.374	-17.8554
22.000000	62.410	-19.7443
22.400000	62.414	-20.8741
22.700001	62.472	-19.3052
23.000000	62.683	-16.6198
23.299999	63.023	-14.2983
23.600000	63.364	-13.4755
24.000000	63.581	-15.0882
24.299999	63.491	-17.7583
24.700001	63.151	-21.8828
25.000000	62.964	-24.5115
25.400000	63.208	-26.8641
25.799999	64.062	-28.5455
26.200001	65.075	-30.2014
26.500000	65.659	-31.1114
26.900000	66.061	-30.8376
27.200001	66.130	-28.9067
27.600000	66.146	-24.2957
28.000000	66.317	-19.9718
28.500000	66.688	-20.4036
29.000000	66.808	-29.4382
29.500000	66.455	-43.8432
30.000000	65.761	-55.6853
30.400000	65.306	-57.5240
30.700001	65.325	-53.4792
31.100000	65.962	-44.4849
31.500000	66.909	-37.0659
32.000000	67.775	-32.2073
32.500000	68.132	-29.2019
33.000000	68.478	-26.1262
33.500000	69.282	-24.7461
34.000000	70.274	-27.0243
34.500000	70.877	-31.7911
35.000000	70.759	-36.5195
35.500000	69.866	-38.9375
36.000000	68.451	-37.0181
36.500000	67.307	-30.3061
37.000000	67.491	-23.6981
37.500000	68.819	-22.6187
38.200001	70.561	-25.8854
38.700001	71.074	-25.4237
39.500000	71.421	-11.8316
40.000000	72.231	-2.9632
40.599998	73.507	-7.0950
41.200001	74.379	-23.4913
41.799999	74.753	-38.4991
42.500000	75.030	-42.1232
43.099998	75.522	-36.8925
43.700001	75.861	-33.1067
44.400002	75.295	-33.4322
45.000000	73.999	-35.0295
45.500000	72.824	-35.8454
46.200001	72.010	-36.8377
46.799999	72.187	-38.5573
47.500000	72.981	-41.1911
48.200001	74.357	-43.9141
48.700001	75.611	-45.3545
49.400002	77.369	-46.0429
50.000000	78.530	-45.7977
50.799999	79.182	-45.5638
51.500000	78.777	-46.0709
52.200001	77.554	-47.4526
53.000000	75.666	-49.7448
53.799999	74.444	-50.6461
54.500000	74.644	-48.9373
55.200001	75.384	-45.5314
56.000000	76.005	-38.3417
57.000000	76.480	-22.6389
58.000000	76.964	-12.7558
59.000000	76.895	-18.6757
60.000000	76.633	-33.6361
60.799999	76.837	-43.1415
61.500000	77.185	-46.9750
62.200001	77.439	-48.2383
63.000000	77.488	-48.8239
64.000000	77.265	-49.4043
65.000000	77.164	-49.2245
66.000000	77.461	-49.7058
67.000000	77.906	-51.6115
68.000000	78.313	-53.6314
69.000000	78.604	-54.9940
70.000000	78.770	-55.3409
71.000000	78.952	-54.6419
72.000000	79.206	-54.0960
73.000000	79.400	-54.8685
74.000000	79.514	-56.7662
75.000000	79.687	-58.9747
76.199997	80.005	-60.9360
77.500000	80.327	-61.9402
78.800003	80.575	-62.9233
80.000000	80.841	-64.1920
81.199997	81.073	-65.4479
82.500000	81.157	-66.3146
83.800003	81.231	-67.3189
85.000000	81.417	-68.8110
86.199997	81.625	-70.2525
87.500000	81.763	-70.7999
88.500000	81.866	-70.4197
90.000000	82.086	-69.8453
91.199997	82.254	-69.8331
92.500000	82.461	-69.9021
93.800003	82.712	-70.4242
95.000000	82.886	-71.6756
96.199997	83.005	-73.2005
97.500000	83.167	-74.5168
98.800003	83.426	-75.0651
100.000000	83.724	-75.0901
101.500000	83.934	-75.3366
103.000000	83.803	-76.1719
104.400002	83.555	-77.1960
106.000000	83.436	-78.0905
107.500000	83.487	-78.9627
109.000000	83.574	-80.4644
110.599998	83.709	-82.6954
112.000000	83.826	-84.3635
113.800003	83.930	-85.2664
115.000000	84.010	-85.3414
117.199997	84.193	-85.3575
118.000000	84.250	-85.3476
120.599998	84.411	-84.2371
122.000000	84.512	-83.2386
124.099998	84.857	-84.3206
125.000000	85.141	-85.8773
126.500000	85.761	-88.8677
128.000000	86.335	-91.9688
131.500000	86.334	-97.7745
132.000000	86.212	-97.9806
134.000000	85.660	-97.3378
136.000000	85.201	-95.9547
138.000000	85.038	-95.7016
140.000000	85.145	-96.7044
143.000000	85.403	-98.7924
145.000000	85.487	-99.9751
147.500000	85.493	-101.1394
150.000000	85.494	-102.1568
152.500000	85.540	-102.8457
155.000000	85.580	-103.5064
157.500000	85.601	-104.2353
160.000000	85.643	-105.0842
162.500000	85.712	-106.0067
165.000000	85.790	-106.8853
167.500000	85.845	-107.6006
170.000000	85.879	-108.1042
172.500000	85.908	-108.5775
175.000000	85.930	-109.1916
177.500000	85.942	-109.8825
180.000000	85.946	-110.6258
182.500000	85.944	-111.4603
185.000000	85.947	-112.2837
187.500000	85.971	-112.9447
190.000000	86.017	-113.4597
192.500000	86.059	-113.9362
195.000000	86.081	-114.4341
197.500000	86.086	-114.9347
200.000000	86.095	-115.4207
203.000000	86.118	-115.9547
206.000000	86.131	-116.4825
209.000000	86.122	-117.0932
212.000000	86.117	-117.6929
214.000000	86.125	-118.0206
218.000000	86.151	-118.5615
220.000000	86.165	-118.8308
224.000000	86.204	-119.3925
227.000000	86.233	-119.8117
230.000000	86.248	-120.2085
233.000000	86.249	-120.5414
236.000000	86.247	-120.8326
240.000000	86.240	-121.2744
243.000000	86.221	-121.7018
247.000000	86.194	-122.2652
250.000000	86.176	-122.5936
254.000000	86.161	-123.0136
258.000000	86.173	-123.4640
262.000000	86.192	-123.8707
265.000000	86.194	-124.1275
269.000000	86.177	-124.4654
272.000000	86.159	-124.7029
276.000000	86.131	-125.0042
280.000000	86.095	-125.3289
285.000000	86.029	-125.6804
290.000000	85.956	-125.7979
295.000000	85.897	-125.7475
300.000000	85.855	-125.6943
304.000000	85.828	-125.7123
307.000000	85.810	-125.7428
311.000000	85.782	-125.7798
315.000000	85.747	-125.7758
320.000000	85.696	-125.6594
325.000000	85.635	-125.4594
330.000000	85.569	-125.2140
335.000000	85.525	-124.8532
340.000000	85.515	-124.3854
345.000000	85.521	-123.8932
350.000000	85.530	-123.4001
355.000000	85.545	-122.8990
360.000000	85.564	-122.3801
365.000000	85.587	-121.8835
370.000000	85.613	-121.4772
375.000000	85.632	-121.1954
382.000000	85.628	-121.0507
387.000000	85.605	-120.9266
395.000000	85.571	-120.3692
400.000000	85.572	-119.9397
406.000000	85.593	-119.5130
412.000000	85.596	-119.1586
418.000000	85.585	-118.7505
425.000000	85.583	-118.3216
431.000000	85.591	-118.1292
437.000000	85.606	-118.0791
444.000000	85.633	-117.9872
450.000000	85.662	-117.6731
455.000000	85.674	-117.2501
462.000000	85.673	-116.6792
468.000000	85.672	-116.3352
475.000000	85.659	-115.9327
482.000000	85.631	-115.4084
487.000000	85.615	-115.0744
494.000000	85.607	-114.7615
500.000000	85.610	-114.5477
508.000000	85.625	-114.1572
515.000000	85.647	-113.7399
522.000000	85.672	-113.3429
530.000000	85.690	-112.9324
538.000000	85.706	-112.4939
545.000000	85.725	-112.0377
552.000000	85.747	-111.5220
560.000000	85.763	-110.9192
570.000000	85.771	-110.3421
580.000000	85.791	-109.9319
590.000000	85.819	-109.3450
600.000000	85.840	-108.5420
608.000000	85.854	-107.8773
615.000000	85.863	-107.3191
622.000000	85.869	-106.7770
630.000000	85.874	-106.1658
640.000000	85.890	-105.4295
650.000000	85.931	-104.7242
660.000000	85.990	-104.0568
670.000000	86.043	-103.3834
680.000000	86.069	-102.6672
690.000000	86.086	-101.8881
700.000000	86.115	-100.9686
710.000000	86.152	-99.9133
720.000000	86.195	-98.7673
730.000000	86.239	-97.6447
740.000000	86.272	-96.5644
750.000000	86.297	-95.4423
762.000000	86.327	-93.9986
775.000000	86.354	-92.4362
788.000000	86.374	-91.0830
800.000000	86.400	-89.9672
812.000000	86.454	-88.9268
825.000000	86.530	-87.7766
838.000000	86.582	-86.5759
850.000000	86.596	-85.4874
862.000000	86.597	-84.4798
875.000000	86.602	-83.4774
885.000000	86.613	-82.7266
900.000000	86.631	-81.5809
912.000000	86.638	-80.6489
925.000000	86.636	-79.6228
938.000000	86.623	-78.5430
950.000000	86.618	-77.5123
962.000000	86.630	-76.5277
975.000000	86.660	-75.5761
988.000000	86.700	-74.7236
1000.000000	86.737	-73.9636
1015.000000	86.775	-72.8984
1030.000000	86.797	-71.6815
1044.000000	86.812	-70.4908
1060.000000	86.836	-69.1026
1075.000000	86.868	-67.7816
1090.000000	86.904	-66.5105
1106.000000	86.940	-65.2821
1120.000000	86.973	-64.2789
1138.000000	87.028	-62.9955
1150.000000	87.072	-62.1141
1172.000000	87.170	-60.4122
1180.000000	87.210	-59.7749
1206.000000	87.347	-57.7077
1220.000000	87.415	-56.6439
1241.000000	87.510	-55.1027
1250.000000	87.555	-54.4477
1265.000000	87.634	-53.3601
1280.000000	87.712	-52.3033
1315.000000	87.869	-50.1313
1320.000000	87.889	-49.8597
1340.000000	87.960	-48.8123
1360.000000	88.009	-47.6974
1380.000000	88.034	-46.4061
1400.000000	88.047	-44.9484
1430.000000	88.070	-42.8092
1450.000000	88.101	-41.5978
1475.000000	88.159	-40.1924
1500.000000	88.233	-38.7327
1525.000000	88.324	-37.2338
1550.000000	88.424	-35.6976
1575.000000	88.538	-34.1546
1600.000000	88.664	-32.6648
1625.000000	88.782	-31.2606
1650.000000	88.887	-29.9915
1675.000000	88.985	-28.8413
1700.000000	89.074	-27.7065
1725.000000	89.160	-26.5579
1750.000000	89.246	-25.3512
1775.000000	89.330	-24.0664
1800.000000	89.408	-22.7210
1825.000000	89.473	-21.2929
1850.000000	89.528	-19.7331
1875.000000	89.584	-18.0438
1900.000000	89.644	-16.3142
1925.000000	89.709	-14.5956
1950.000000	89.783	-12.9040
1975.000000	89.868	-11.2579
2000.000000	89.966	-9.6326
2030.000000	90.113	-7.6490
2060.000000	90.293	-5.6293
2090.000000	90.505	-3.6457
2120.000000	90.748	-1.7329
2140.000000	90.922	-0.5165
2180.000000	91.275	1.6537
2200.000000	91.449	2.5812
2240.000000	91.807	4.1140
2270.000000	92.091	5.0048
2300.000000	92.386	5.6354
2330.000000	92.684	5.9163
2360.000000	92.982	5.8063
2400.000000	93.376	5.1580
2430.000000	93.663	4.4162
2470.000000	94.029	3.2378
2500.000000	94.293	2.3304
2540.000000	94.638	1.2250
2580.000000	94.972	0.2395
2620.000000	95.288	-0.7045
2650.000000	95.510	-1.3809
2690.000000	95.779	-2.1811
2720.000000	95.958	-2.6725
2760.000000	96.177	-3.1698
2800.000000	96.379	-3.5196
2850.000000	96.598	-3.7851
2900.000000	96.762	-3.6617
2950.000000	96.883	-2.9673
3000.000000	96.964	-1.9387
3040.000000	96.995	-1.1668
3070.000000	96.998	-0.7264
3110.000000	96.977	-0.3633
3150.000000	96.933	-0.2209
3200.000000	96.850	-0.1492
3250.000000	96.751	0.0726
3300.000000	96.647	0.5649
3350.000000	96.534	1.2601
3400.000000	96.408	2.1039
3450.000000	96.277	3.0523
3500.000000	96.142	4.0095
3550.000000	96.010	4.9847
3600.000000	95.890	6.0989
3650.000000	95.783	7.3591
3700.000000	95.675	8.6513
3750.000000	95.556	9.9478
3820.000000	95.374	12.0360
3870.000000	95.254	13.9484
3950.000000	95.104	17.5774
4000.000000	95.018	19.8422
4060.000000	94.899	22.3165
4120.000000	94.744	24.4472
4180.000000	94.546	26.2510
4250.000000	94.296	28.0131
4310.000000	94.089	29.0881
4370.000000	93.868	29.6918
4440.000000	93.575	30.1383
4500.000000	93.304	30.5640
4550.000000	93.071	30.9160
4620.000000	92.733	31.2013
4680.000000	92.429	31.1777
4750.000000	92.053	30.9083
4820.000000	91.665	30.5447
4870.000000	91.400	30.2820
4940.000000	91.050	29.9181
5000.000000	90.750	29.6460
5080.000000	90.311	29.5396
5150.000000	89.883	30.0610
5220.000000	89.470	31.4640
5300.000000	89.129	33.8923
5380.000000	88.976	36.3824
5450.000000	88.947	38.0828
5520.000000	88.944	39.2744
5600.000000	88.926	40.2933
5700.000000	88.887	41.7011
5800.000000	88.890	43.5793
5900.000000	88.950	45.5955
6000.000000	89.079	47.9113
6080.000000	89.286	50.0939
6150.000000	89.565	52.0589
6220.000000	89.922	53.8220
6300.000000	90.388	55.1645
6400.000000	90.963	55.1651
6500.000000	91.436	53.2865
6600.000000	91.798	50.4213
6700.000000	92.085	47.5507
6800.000000	92.323	45.0138
6900.000000	92.524	42.5194
7000.000000	92.688	39.5398
7100.000000	92.825	35.7125
7200.000000	92.944	30.9455
7300.000000	93.029	25.3474
7400.000000	93.042	19.1381
7500.000000	92.949	12.6892
7620.000000	92.686	5.1531
7750.000000	92.212	-2.3101
7880.000000	91.562	-8.6767
8000.000000	90.851	-13.6508
8120.000000	90.082	-17.8741
8250.000000	89.216	-21.6069
8380.000000	88.323	-24.9722
8500.000000	87.461	-28.3820
8620.000000	86.539	-32.1839
8750.000000	85.446	-36.3076
8850.000000	84.543	-38.8299
9000.000000	83.193	-40.2573
9120.000000	82.215	-39.1512
9250.000000	81.327	-36.3699
9380.000000	80.697	-32.7664
9500.000000	80.409	-29.0967
9620.000000	80.406	-25.0684
9750.000000	80.670	-20.4525
9880.000000	81.139	-16.4022
10000.000000	81.690	-13.9972
10150.000000	82.433	-13.2428
10300.000000	83.098	-14.8490
10440.000000	83.555	-18.0596
10600.000000	83.813	-23.0452
10750.000000	83.754	-28.1233
10900.000000	83.395	-32.5737
11060.000000	82.754	-35.4243
11200.000000	82.119	-35.4806
11380.000000	81.493	-32.2196
11500.000000	81.336	-29.3480
11720.000000	81.501	-28.4798
11800.000000	81.571	-30.4850
12060.000000	81.180	-43.0726
12200.000000	80.396	-50.8038
12410.000000	78.453	-59.7121
12500.000000	77.379	-61.6072
12650.000000	75.387	-60.0519
12800.000000	73.463	-48.4894
13150.000000	73.054	3.1017
13200.000000	73.467	6.7198
13400.000000	75.298	11.8408
13600.000000	76.779	8.8859
13800.000000	77.720	1.8827
14000.000000	78.143	-7.8942
14300.000000	77.854	-25.9408
14500.000000	77.112	-38.6807
14750.000000	75.658	-54.2289
15000.000000	73.765	-68.8909
15250.000000	71.686	-81.2339
15500.000000	69.833	-89.1683
15750.000000	68.834	-93.5634
16000.000000	68.899	-98.3665
16250.000000	69.478	-105.7563
16500.000000	70.103	-115.2295
16750.000000	70.720	-125.7419
17000.000000	71.499	-136.6276
17250.000000	72.556	-148.2056
17500.000000	73.832	-160.2143
17750.000000	75.157	-172.5570
18000.000000	76.396	173.8472
18250.000000	77.469	158.0180
18500.000000	78.307	139.2913
18750.000000	78.850	117.6815
19000.000000	79.027	94.3441
19250.000000	78.770	70.7404
19500.000000	78.064	48.2217
19750.000000	77.088	28.8611
20000.000000	76.353	17.2191
