* Measurement data measured by REW V5.30 beta 2
* Source: Frequency response averaged data
* Format: Averaged data produced from the rms magnitudes of Moondrop Space Travel, Moondrop Space Travel, RMS Average 1, Moondrop Space Travel L
* Dated: 21-Nov-2023 16:04:33
* REW Settings:
*  C-weighting compensation: Off
*  Target level: 75.0 dB
* Note: 
* Measurement: Moondrop Space Travel R
* Smoothing: 1/12 octave
* Frequency Step: 1/48 octave
* Start Frequency: 20.300 Hz
*
* Freq(Hz)	SPL(dB)
20.299999	65.298
20.600000	65.303
20.900000	65.306
21.200001	65.306
21.400000	65.304
21.799999	65.296
22.000000	65.291
22.400000	65.279
22.700001	65.272
23.000000	65.272
23.299999	65.282
23.600000	65.306
24.000000	65.360
24.299999	65.411
24.700001	65.478
25.000000	65.517
25.400000	65.543
25.799999	65.538
26.200001	65.518
26.500000	65.507
26.900000	65.511
27.200001	65.531
27.600000	65.573
28.000000	65.616
28.500000	65.651
29.000000	65.671
29.500000	65.704
30.000000	65.764
30.400000	65.821
30.700001	65.860
31.100000	65.898
31.500000	65.920
32.000000	65.938
32.500000	65.960
33.000000	65.991
33.500000	66.024
34.000000	66.052
34.500000	66.076
35.000000	66.098
35.500000	66.117
36.000000	66.130
36.500000	66.135
37.000000	66.133
37.500000	66.130
38.200001	66.136
38.700001	66.150
39.500000	66.175
40.000000	66.184
40.599998	66.188
41.200001	66.188
41.799999	66.186
42.500000	66.181
43.099998	66.176
43.700001	66.175
44.400002	66.176
45.000000	66.173
45.500000	66.166
46.200001	66.154
46.799999	66.143
47.500000	66.130
48.200001	66.116
48.700001	66.106
49.400002	66.093
50.000000	66.081
50.799999	66.058
51.500000	66.032
52.200001	66.003
53.000000	65.965
53.799999	65.925
54.500000	65.890
55.200001	65.859
56.000000	65.824
57.000000	65.777
58.000000	65.728
59.000000	65.679
60.000000	65.631
60.799999	65.591
61.500000	65.557
62.200001	65.523
63.000000	65.486
64.000000	65.439
65.000000	65.388
66.000000	65.335
67.000000	65.286
68.000000	65.239
69.000000	65.187
70.000000	65.130
71.000000	65.072
72.000000	65.013
73.000000	64.957
74.000000	64.903
75.000000	64.851
76.199997	64.789
77.500000	64.721
78.800003	64.649
80.000000	64.582
81.199997	64.519
82.500000	64.452
83.800003	64.381
85.000000	64.312
86.199997	64.239
87.500000	64.160
88.500000	64.099
90.000000	64.009
91.199997	63.940
92.500000	63.869
93.800003	63.799
95.000000	63.732
96.199997	63.666
97.500000	63.600
98.800003	63.537
100.000000	63.478
101.500000	63.401
103.000000	63.323
104.400002	63.251
106.000000	63.169
107.500000	63.093
109.000000	63.016
110.599998	62.931
112.000000	62.859
113.800003	62.771
115.000000	62.713
117.199997	62.597
118.000000	62.552
120.599998	62.414
122.000000	62.348
124.099998	62.258
125.000000	62.220
126.500000	62.157
128.000000	62.097
131.500000	61.962
132.000000	61.941
134.000000	61.854
136.000000	61.763
138.000000	61.675
140.000000	61.588
143.000000	61.465
145.000000	61.388
147.500000	61.288
150.000000	61.181
152.500000	61.079
155.000000	60.991
157.500000	60.919
160.000000	60.850
162.500000	60.777
165.000000	60.703
167.500000	60.638
170.000000	60.579
172.500000	60.515
175.000000	60.441
177.500000	60.364
180.000000	60.289
182.500000	60.212
185.000000	60.137
187.500000	60.065
190.000000	59.994
192.500000	59.922
195.000000	59.854
197.500000	59.798
200.000000	59.755
203.000000	59.715
206.000000	59.688
209.000000	59.668
212.000000	59.640
214.000000	59.614
218.000000	59.554
220.000000	59.523
224.000000	59.464
227.000000	59.421
230.000000	59.378
233.000000	59.331
236.000000	59.286
240.000000	59.237
243.000000	59.211
247.000000	59.179
250.000000	59.156
254.000000	59.128
258.000000	59.096
262.000000	59.057
265.000000	59.027
269.000000	58.994
272.000000	58.976
276.000000	58.957
280.000000	58.940
285.000000	58.918
290.000000	58.899
295.000000	58.881
300.000000	58.856
304.000000	58.831
307.000000	58.811
311.000000	58.791
315.000000	58.776
320.000000	58.762
325.000000	58.742
330.000000	58.719
335.000000	58.704
340.000000	58.701
345.000000	58.701
350.000000	58.692
355.000000	58.672
360.000000	58.653
365.000000	58.645
370.000000	58.650
375.000000	58.658
382.000000	58.671
387.000000	58.679
395.000000	58.684
400.000000	58.681
406.000000	58.676
412.000000	58.676
418.000000	58.681
425.000000	58.688
431.000000	58.689
437.000000	58.683
444.000000	58.671
450.000000	58.663
455.000000	58.659
462.000000	58.659
468.000000	58.662
475.000000	58.664
482.000000	58.667
487.000000	58.672
494.000000	58.681
500.000000	58.691
508.000000	58.706
515.000000	58.717
522.000000	58.725
530.000000	58.729
538.000000	58.732
545.000000	58.733
552.000000	58.734
560.000000	58.737
570.000000	58.732
580.000000	58.711
590.000000	58.682
600.000000	58.661
608.000000	58.652
615.000000	58.646
622.000000	58.644
630.000000	58.643
640.000000	58.640
650.000000	58.631
660.000000	58.618
670.000000	58.604
680.000000	58.589
690.000000	58.580
700.000000	58.577
710.000000	58.577
720.000000	58.573
730.000000	58.568
740.000000	58.567
750.000000	58.567
762.000000	58.560
775.000000	58.547
788.000000	58.541
800.000000	58.545
812.000000	58.554
825.000000	58.564
838.000000	58.573
850.000000	58.584
862.000000	58.603
875.000000	58.627
885.000000	58.648
900.000000	58.683
912.000000	58.718
925.000000	58.767
938.000000	58.827
950.000000	58.883
962.000000	58.930
975.000000	58.974
988.000000	59.021
1000.000000	59.071
1015.000000	59.141
1030.000000	59.213
1044.000000	59.281
1060.000000	59.360
1075.000000	59.428
1090.000000	59.494
1106.000000	59.564
1120.000000	59.622
1138.000000	59.695
1150.000000	59.745
1172.000000	59.843
1180.000000	59.881
1206.000000	60.012
1220.000000	60.086
1241.000000	60.201
1250.000000	60.254
1265.000000	60.346
1280.000000	60.441
1315.000000	60.640
1320.000000	60.661
1340.000000	60.713
1360.000000	60.715
1380.000000	60.677
1400.000000	60.627
1430.000000	60.582
1450.000000	60.590
1475.000000	60.640
1500.000000	60.722
1525.000000	60.820
1550.000000	60.927
1575.000000	61.032
1600.000000	61.136
1625.000000	61.245
1650.000000	61.354
1675.000000	61.462
1700.000000	61.570
1725.000000	61.686
1750.000000	61.812
1775.000000	61.946
1800.000000	62.082
1825.000000	62.224
1850.000000	62.378
1875.000000	62.543
1900.000000	62.719
1925.000000	62.906
1950.000000	63.103
1975.000000	63.305
2000.000000	63.509
2030.000000	63.760
2060.000000	64.021
2090.000000	64.295
2120.000000	64.582
2140.000000	64.777
2180.000000	65.173
2200.000000	65.374
2240.000000	65.782
2270.000000	66.087
2300.000000	66.386
2330.000000	66.676
2360.000000	66.958
2400.000000	67.316
2430.000000	67.568
2470.000000	67.876
2500.000000	68.082
2540.000000	68.322
2580.000000	68.527
2620.000000	68.701
2650.000000	68.810
2690.000000	68.932
2720.000000	69.009
2760.000000	69.097
2800.000000	69.162
2850.000000	69.206
2900.000000	69.218
2950.000000	69.202
3000.000000	69.164
3040.000000	69.124
3070.000000	69.091
3110.000000	69.042
3150.000000	68.987
3200.000000	68.908
3250.000000	68.825
3300.000000	68.742
3350.000000	68.654
3400.000000	68.562
3450.000000	68.472
3500.000000	68.388
3550.000000	68.314
3600.000000	68.251
3650.000000	68.198
3700.000000	68.154
3750.000000	68.116
3820.000000	68.072
3870.000000	68.041
3950.000000	67.983
4000.000000	67.945
4060.000000	67.903
4120.000000	67.854
4180.000000	67.790
4250.000000	67.693
4310.000000	67.595
4370.000000	67.484
4440.000000	67.337
4500.000000	67.193
4550.000000	67.059
4620.000000	66.841
4680.000000	66.609
4750.000000	66.269
4820.000000	65.848
4870.000000	65.498
4940.000000	64.940
5000.000000	64.409
5080.000000	63.650
5150.000000	62.980
5220.000000	62.358
5300.000000	61.773
5380.000000	61.371
5450.000000	61.183
5520.000000	61.143
5600.000000	61.252
5700.000000	61.538
5800.000000	61.893
5900.000000	62.239
6000.000000	62.542
6080.000000	62.742
6150.000000	62.882
6220.000000	62.990
6300.000000	63.081
6400.000000	63.155
6500.000000	63.198
6600.000000	63.225
6700.000000	63.253
6800.000000	63.302
6900.000000	63.376
7000.000000	63.481
7100.000000	63.632
7200.000000	63.848
7300.000000	64.137
7400.000000	64.504
7500.000000	64.941
7620.000000	65.503
7750.000000	66.005
7880.000000	66.179
8000.000000	65.908
8120.000000	65.205
8250.000000	64.067
8380.000000	62.771
8500.000000	61.648
8620.000000	60.719
8750.000000	59.962
8850.000000	59.524
9000.000000	59.031
9120.000000	58.738
9250.000000	58.497
9380.000000	58.322
9500.000000	58.214
9620.000000	58.155
9750.000000	58.137
9880.000000	58.156
10000.000000	58.201
10150.000000	58.293
10300.000000	58.417
10440.000000	58.539
10600.000000	58.662
10750.000000	58.742
10900.000000	58.782
11060.000000	58.789
11200.000000	58.772
11380.000000	58.733
11500.000000	58.721
11720.000000	58.792
11800.000000	58.865
12060.000000	59.335
12200.000000	59.780
12410.000000	60.747
12500.000000	61.257
12650.000000	62.160
12800.000000	62.997
13150.000000	63.740
13200.000000	63.650
13400.000000	62.817
13600.000000	61.456
13800.000000	59.932
14000.000000	58.542
14300.000000	56.961
14500.000000	56.211
14750.000000	55.496
15000.000000	54.927
15250.000000	54.419
15500.000000	53.946
15750.000000	53.601
16000.000000	53.535
16250.000000	53.759
16500.000000	54.068
16750.000000	54.167
17000.000000	53.858
17250.000000	53.133
17500.000000	52.147
17750.000000	51.125
18000.000000	50.262
18250.000000	49.653
18500.000000	49.295
18750.000000	49.150
19000.000000	49.157
19250.000000	49.218
19500.000000	49.248
19750.000000	49.220
20000.000000	49.176
