* Measurement data measured by REW V5.31.3
* Source: Microphone (6- USB Sound Device        ), MICROPHONE (Master Volume), L, volume: 0.700
* Format: 256k Log Swept Sine, 1 sweep at -12.0 dBFS with no timing reference
* Dated: 23-May-2025 15:28:52
* REW Settings:
*  C-weighting compensation: Off
*  Target level: 75.0 dB
* Note: 
* Measurement: Moondrop Pill L
* Smoothing: 1/12 octave
* Frequency Step: 1/48 octave
* Start Frequency: 20.300 Hz
*
* Freq(Hz)	SPL(dB)	Phase(degrees)
20.299999	38.490	100.3573
20.600000	37.458	111.2243
20.900000	37.558	143.5274
21.200001	39.409	168.8077
21.400000	40.885	172.8720
21.799999	43.176	168.5656
22.000000	43.877	164.0860
22.400000	44.474	154.2074
22.700001	44.350	147.6090
23.000000	43.915	142.9384
23.299999	43.434	141.0094
23.600000	43.248	141.7446
24.000000	43.785	144.1322
24.299999	44.575	144.6758
24.700001	45.602	142.9765
25.000000	46.142	140.7610
25.400000	46.487	138.1609
25.799999	46.511	137.2746
26.200001	46.443	138.5847
26.500000	46.482	140.5105
26.900000	46.746	142.8444
27.200001	47.073	143.4771
27.600000	47.564	142.2715
28.000000	48.002	139.0802
28.500000	48.373	133.8262
29.000000	48.527	129.3078
29.500000	48.543	127.3185
30.000000	48.584	128.2000
30.400000	48.713	130.0114
30.700001	48.855	131.2531
31.100000	49.042	132.1368
31.500000	49.173	132.0416
32.000000	49.269	131.2095
32.500000	49.428	130.5771
33.000000	49.789	130.5704
33.500000	50.311	130.7546
34.000000	50.808	130.5485
34.500000	51.119	129.8472
35.000000	51.223	128.9826
35.500000	51.249	128.3356
36.000000	51.393	127.9151
36.500000	51.746	127.3170
37.000000	52.199	126.2673
37.500000	52.582	124.9866
38.200001	52.880	123.4494
38.700001	52.975	122.4422
39.500000	53.030	120.3435
40.000000	53.044	119.0032
40.599998	53.156	117.6704
41.200001	53.402	115.9426
41.799999	53.649	113.6961
42.500000	54.085	113.2340
43.099998	55.118	116.1317
43.700001	56.666	118.6045
44.400002	58.134	117.8034
45.000000	58.589	115.8879
45.500000	58.391	115.0871
46.200001	57.549	115.6839
46.799999	56.692	115.6152
47.500000	55.829	111.3369
48.200001	55.158	103.3824
48.700001	54.829	98.3375
49.400002	54.699	95.2199
50.000000	54.939	95.7135
50.799999	55.501	96.9608
51.500000	55.902	96.8902
52.200001	56.147	96.3445
53.000000	56.370	95.9728
53.799999	56.623	95.6464
54.500000	56.838	95.0103
55.200001	57.005	93.9604
56.000000	57.110	92.4005
57.000000	57.121	90.3041
58.000000	57.064	88.6269
59.000000	57.097	87.6246
60.000000	57.267	86.4818
60.799999	57.409	85.1941
61.500000	57.508	84.0496
62.200001	57.600	83.0648
63.000000	57.704	82.1769
64.000000	57.815	81.3159
65.000000	57.881	80.4726
66.000000	57.922	79.4136
67.000000	57.977	78.0640
68.000000	58.043	76.6244
69.000000	58.100	75.4284
70.000000	58.147	74.5347
71.000000	58.187	73.7094
72.000000	58.216	72.7725
73.000000	58.242	71.7926
74.000000	58.279	70.9334
75.000000	58.322	70.3271
76.199997	58.369	69.8852
77.500000	58.403	69.2754
78.800003	58.413	68.1280
80.000000	58.400	66.7851
81.199997	58.391	65.7200
82.500000	58.430	64.9808
83.800003	58.497	64.2206
85.000000	58.545	63.3640
86.199997	58.566	62.5723
87.500000	58.579	62.0921
88.500000	58.609	61.9365
90.000000	58.670	61.5738
91.199997	58.694	60.9347
92.500000	58.686	59.9907
93.800003	58.650	59.1644
95.000000	58.610	58.7005
96.199997	58.589	58.3674
97.500000	58.583	57.9921
98.800003	58.568	57.7425
100.000000	58.544	57.7957
101.500000	58.516	58.1436
103.000000	58.493	58.3136
104.400002	58.475	58.0080
106.000000	58.494	57.5324
107.500000	58.556	57.2815
109.000000	58.632	57.2440
110.599998	58.706	57.3541
112.000000	58.762	57.3663
113.800003	58.829	57.0138
115.000000	58.871	56.7298
117.199997	58.944	56.4427
118.000000	58.973	56.3435
120.599998	59.083	55.8899
122.000000	59.143	55.6505
124.099998	59.213	55.3276
125.000000	59.237	55.2160
126.500000	59.288	55.0790
128.000000	59.354	54.9837
131.500000	59.526	54.6474
132.000000	59.553	54.5628
134.000000	59.667	54.2429
136.000000	59.765	54.0026
138.000000	59.837	53.6691
140.000000	59.908	53.2052
143.000000	60.021	52.7118
145.000000	60.069	52.6825
147.500000	60.122	52.5870
150.000000	60.243	51.9459
152.500000	60.417	50.8676
155.000000	60.551	49.9061
157.500000	60.636	49.2971
160.000000	60.730	48.8204
162.500000	60.841	48.1163
165.000000	60.957	47.2046
167.500000	61.064	46.2449
170.000000	61.136	45.2984
172.500000	61.163	44.4189
175.000000	61.176	43.5470
177.500000	61.208	42.7035
180.000000	61.253	42.0695
182.500000	61.299	41.5826
185.000000	61.347	40.9438
187.500000	61.407	40.0575
190.000000	61.467	39.1159
192.500000	61.497	38.3361
195.000000	61.488	37.6523
197.500000	61.464	36.9566
200.000000	61.452	36.3157
203.000000	61.465	35.7430
206.000000	61.484	35.3050
209.000000	61.489	34.8779
212.000000	61.496	34.4472
214.000000	61.511	34.1343
218.000000	61.549	33.4307
220.000000	61.569	33.0734
224.000000	61.610	32.2251
227.000000	61.635	31.3779
230.000000	61.650	30.4338
233.000000	61.653	29.4772
236.000000	61.647	28.6060
240.000000	61.610	27.8020
243.000000	61.548	27.3931
247.000000	61.437	26.8819
250.000000	61.355	26.5299
254.000000	61.273	26.2377
258.000000	61.234	26.2209
262.000000	61.230	26.1653
265.000000	61.236	25.9867
269.000000	61.258	25.7188
272.000000	61.284	25.4669
276.000000	61.310	25.0209
280.000000	61.314	24.6732
285.000000	61.297	24.4506
290.000000	61.272	24.4233
295.000000	61.258	24.5390
300.000000	61.271	24.5066
304.000000	61.287	24.3974
307.000000	61.295	24.3544
311.000000	61.291	24.3707
315.000000	61.271	24.3955
320.000000	61.248	24.3629
325.000000	61.247	24.3201
330.000000	61.255	24.3922
335.000000	61.261	24.4926
340.000000	61.271	24.4964
345.000000	61.280	24.3851
350.000000	61.284	24.2613
355.000000	61.276	24.2092
360.000000	61.259	24.2869
365.000000	61.247	24.5041
370.000000	61.240	24.7945
375.000000	61.224	25.0776
382.000000	61.199	25.3692
387.000000	61.191	25.4756
395.000000	61.186	25.4015
400.000000	61.202	25.3796
406.000000	61.236	25.5170
412.000000	61.256	25.6306
418.000000	61.250	25.6928
425.000000	61.240	25.7614
431.000000	61.226	25.8556
437.000000	61.184	25.9949
444.000000	61.114	26.2125
450.000000	61.049	26.4382
455.000000	60.994	26.7013
462.000000	60.935	27.2643
468.000000	60.919	27.8980
475.000000	60.940	28.6496
482.000000	60.981	29.3394
487.000000	61.012	29.8541
494.000000	61.050	30.6035
500.000000	61.087	31.1533
508.000000	61.150	31.6395
515.000000	61.199	31.8840
522.000000	61.237	31.9839
530.000000	61.279	31.9340
538.000000	61.308	31.9958
545.000000	61.311	32.2910
552.000000	61.292	32.7128
560.000000	61.263	33.2462
570.000000	61.232	34.0251
580.000000	61.221	34.9163
590.000000	61.223	35.7987
600.000000	61.225	36.6307
608.000000	61.222	37.2737
615.000000	61.221	37.8522
622.000000	61.225	38.4572
630.000000	61.231	39.1548
640.000000	61.241	40.0192
650.000000	61.236	40.8372
660.000000	61.218	41.5866
670.000000	61.223	42.3081
680.000000	61.258	42.9163
690.000000	61.304	43.3253
700.000000	61.330	43.5815
710.000000	61.325	43.7400
720.000000	61.309	43.8730
730.000000	61.313	44.1173
740.000000	61.344	44.4578
750.000000	61.378	44.7994
762.000000	61.409	45.2056
775.000000	61.438	45.6522
788.000000	61.485	46.1126
800.000000	61.534	46.4460
812.000000	61.579	46.5571
825.000000	61.644	46.5809
838.000000	61.724	46.7167
850.000000	61.774	46.8570
862.000000	61.794	46.9212
875.000000	61.801	46.9533
885.000000	61.807	47.0334
900.000000	61.825	47.3466
912.000000	61.840	47.6515
925.000000	61.849	47.8451
938.000000	61.849	47.9755
950.000000	61.847	48.1504
962.000000	61.849	48.3570
975.000000	61.860	48.5652
988.000000	61.888	48.7876
1000.000000	61.923	49.0000
1015.000000	61.960	49.1907
1030.000000	61.990	49.3167
1044.000000	62.015	49.4771
1060.000000	62.030	49.7906
1075.000000	62.034	50.0965
1090.000000	62.051	50.2667
1106.000000	62.098	50.4359
1120.000000	62.149	50.6586
1138.000000	62.212	50.9315
1150.000000	62.250	51.0673
1172.000000	62.299	51.2685
1180.000000	62.311	51.3515
1206.000000	62.352	51.7896
1220.000000	62.396	52.0857
1241.000000	62.500	52.5557
1250.000000	62.557	52.7843
1265.000000	62.665	53.2030
1280.000000	62.782	53.6096
1315.000000	63.028	54.2720
1320.000000	63.055	54.3386
1340.000000	63.132	54.5496
1360.000000	63.164	54.7207
1380.000000	63.170	54.9597
1400.000000	63.168	55.2627
1430.000000	63.183	55.6437
1450.000000	63.220	55.8012
1475.000000	63.302	55.9939
1500.000000	63.426	56.2415
1525.000000	63.572	56.4635
1550.000000	63.711	56.6179
1575.000000	63.840	56.7295
1600.000000	63.968	56.9031
1625.000000	64.098	57.1462
1650.000000	64.215	57.3563
1675.000000	64.322	57.5071
1700.000000	64.436	57.6075
1725.000000	64.564	57.6459
1750.000000	64.696	57.6769
1775.000000	64.820	57.8134
1800.000000	64.939	58.0958
1825.000000	65.059	58.5205
1850.000000	65.190	59.0765
1875.000000	65.339	59.7145
1900.000000	65.499	60.3985
1925.000000	65.669	61.1167
1950.000000	65.855	61.8631
1975.000000	66.066	62.6420
2000.000000	66.307	63.4174
2030.000000	66.642	64.2579
2060.000000	67.028	64.9683
2090.000000	67.454	65.5084
2120.000000	67.915	65.7494
2140.000000	68.238	65.7128
2180.000000	68.903	65.2600
2200.000000	69.234	64.8707
2240.000000	69.885	63.7428
2270.000000	70.369	62.6095
2300.000000	70.842	61.2642
2330.000000	71.296	59.7267
2360.000000	71.732	58.0191
2400.000000	72.293	55.4881
2430.000000	72.699	53.4200
2470.000000	73.208	50.5116
2500.000000	73.560	48.2749
2540.000000	73.995	45.2850
2580.000000	74.408	42.3583
2620.000000	74.820	39.5023
2650.000000	75.128	37.3713
2690.000000	75.519	34.6383
2720.000000	75.802	32.8525
2760.000000	76.186	31.0546
2800.000000	76.614	29.8666
2850.000000	77.211	28.5433
2900.000000	77.808	26.6684
2950.000000	78.337	24.0550
3000.000000	78.770	21.0033
3040.000000	79.063	18.5919
3070.000000	79.263	16.8394
3110.000000	79.504	14.4833
3150.000000	79.705	12.0158
3200.000000	79.872	8.8677
3250.000000	79.954	5.9205
3300.000000	79.986	3.3350
3350.000000	79.996	1.1054
3400.000000	79.997	-0.8664
3450.000000	79.984	-2.7368
3500.000000	79.935	-4.5417
3550.000000	79.846	-6.1971
3600.000000	79.728	-7.6340
3650.000000	79.605	-8.8206
3700.000000	79.499	-9.7666
3750.000000	79.422	-10.5541
3820.000000	79.348	-11.6197
3870.000000	79.295	-12.3449
3950.000000	79.180	-13.2613
4000.000000	79.090	-13.7365
4060.000000	78.975	-14.3267
4120.000000	78.837	-14.9741
4180.000000	78.655	-15.6358
4250.000000	78.372	-16.2916
4310.000000	78.074	-16.5378
4370.000000	77.749	-16.3895
4440.000000	77.377	-15.7843
4500.000000	77.079	-15.0182
4550.000000	76.841	-14.2475
4620.000000	76.519	-12.9656
4680.000000	76.247	-11.7269
4750.000000	75.916	-10.1236
4820.000000	75.553	-8.1757
4870.000000	75.271	-6.4474
4940.000000	74.858	-3.3247
5000.000000	74.527	0.1799
5080.000000	74.201	6.0328
5150.000000	74.099	12.0530
5220.000000	74.229	18.4230
5300.000000	74.675	25.0763
5380.000000	75.337	29.9138
5450.000000	75.974	32.3365
5520.000000	76.579	33.2064
5600.000000	77.144	32.6387
5700.000000	77.568	30.5136
5800.000000	77.678	27.9082
5900.000000	77.515	25.6104
6000.000000	77.127	24.3004
6080.000000	76.701	24.2042
6150.000000	76.275	24.8563
6220.000000	75.825	26.1895
6300.000000	75.309	28.4778
6400.000000	74.704	32.2907
6500.000000	74.178	36.8190
6600.000000	73.752	41.4850
6700.000000	73.442	45.4078
6800.000000	73.240	47.8043
6900.000000	73.135	48.6554
7000.000000	73.100	48.3983
7100.000000	73.103	47.4432
7200.000000	73.120	46.1065
7300.000000	73.144	44.7300
7400.000000	73.206	43.6565
7500.000000	73.377	42.9439
7620.000000	73.803	42.0514
7750.000000	74.472	40.0613
7880.000000	75.180	36.4434
8000.000000	75.773	31.6567
8120.000000	76.276	25.4607
8250.000000	76.669	17.0893
8380.000000	76.805	7.2605
8500.000000	76.632	-2.3535
8620.000000	76.181	-11.6037
8750.000000	75.461	-20.4848
8850.000000	74.814	-26.2719
9000.000000	73.817	-33.3087
9120.000000	73.071	-37.7937
9250.000000	72.356	-41.8087
9380.000000	71.757	-45.2331
9500.000000	71.332	-48.1399
9620.000000	71.053	-51.0551
9750.000000	70.918	-54.5069
9880.000000	70.948	-58.5931
10000.000000	71.105	-63.2398
10150.000000	71.416	-70.6195
10300.000000	71.725	-80.0111
10440.000000	71.862	-90.4958
10600.000000	71.693	-103.9008
10750.000000	71.152	-116.9527
10900.000000	70.254	-129.6017
11060.000000	68.969	-141.8960
11200.000000	67.643	-151.1571
11380.000000	65.817	-160.6710
11500.000000	64.636	-165.6876
11720.000000	62.763	-173.4090
11800.000000	62.200	-176.0971
12060.000000	60.775	174.6326
12200.000000	60.240	169.0487
12410.000000	59.734	159.2899
12500.000000	59.617	154.3326
12650.000000	59.516	144.7345
12800.000000	59.461	133.3180
13150.000000	58.920	99.9158
13200.000000	58.750	94.5207
13400.000000	57.800	72.1065
13600.000000	56.483	49.4486
13800.000000	55.003	27.8320
14000.000000	53.610	8.1343
14300.000000	52.087	-17.5054
14500.000000	51.508	-32.5884
14750.000000	51.172	-49.6367
15000.000000	51.099	-65.0433
15250.000000	51.107	-79.2452
15500.000000	51.064	-92.7545
15750.000000	51.001	-105.9655
16000.000000	51.019	-118.7686
16250.000000	51.172	-131.0461
16500.000000	51.486	-143.4346
16750.000000	51.880	-156.9739
17000.000000	52.142	-171.9230
17250.000000	52.079	172.5679
17500.000000	51.649	157.5234
17750.000000	50.915	143.6891
18000.000000	49.982	131.5336
18250.000000	48.938	121.3058
18500.000000	47.869	113.6337
18750.000000	46.958	109.9713
19000.000000	46.579	111.1849
19250.000000	47.015	114.5236
19500.000000	48.103	115.9245
19750.000000	49.345	114.8879
20000.000000	50.144	113.4817
