* Measurement data measured by REW V5.31.3
* Source: Microphone (4- USB Audio Device), no input selected, R, volume: no control
* Format: 256k Log Swept Sine, 1 sweep at -12.0 dBFS with no timing reference
* Dated: 18-Oct-2024 10:43:19
* REW Settings:
*  C-weighting compensation: Off
*  Target level: 75.0 dB
* Note: 
* Measurement: Moondrop Moca L
* Smoothing: 1/12 octave
* Frequency Step: 1/48 octave
* Start Frequency: 20.300 Hz
*
* Freq(Hz)	SPL(dB)	Phase(degrees)
20.299999	69.841	45.4614
20.600000	69.875	45.0958
20.900000	69.927	44.6018
21.200001	69.989	44.0036
21.400000	70.032	43.5500
21.799999	70.112	42.5395
22.000000	70.144	42.0062
22.400000	70.191	40.9485
22.700001	70.216	40.1984
23.000000	70.237	39.4914
23.299999	70.260	38.8113
23.600000	70.284	38.1366
24.000000	70.317	37.2288
24.299999	70.340	36.5544
24.700001	70.368	35.7055
25.000000	70.390	35.1258
25.400000	70.428	34.4170
25.799999	70.473	33.7280
26.200001	70.517	33.0075
26.500000	70.540	32.4491
26.900000	70.553	31.7331
27.200001	70.552	31.2622
27.600000	70.549	30.7565
28.000000	70.559	30.3585
28.500000	70.597	29.8720
29.000000	70.648	29.2562
29.500000	70.686	28.5035
30.000000	70.702	27.7008
30.400000	70.708	27.0547
30.700001	70.712	26.5592
31.100000	70.720	25.8677
31.500000	70.727	25.1491
32.000000	70.733	24.2847
32.500000	70.738	23.5489
33.000000	70.754	22.9490
33.500000	70.777	22.3973
34.000000	70.792	21.8253
34.500000	70.787	21.2585
35.000000	70.770	20.7568
35.500000	70.760	20.3095
36.000000	70.766	19.8322
36.500000	70.778	19.2705
37.000000	70.783	18.6635
37.500000	70.782	18.0867
38.200001	70.787	17.3476
38.700001	70.798	16.8094
39.500000	70.810	15.9633
40.000000	70.813	15.5387
40.599998	70.824	15.1358
41.200001	70.838	14.7388
41.799999	70.838	14.2970
42.500000	70.819	13.8004
43.099998	70.810	13.4108
43.700001	70.821	12.9846
44.400002	70.847	12.4017
45.000000	70.865	11.8992
45.500000	70.872	11.5325
46.200001	70.871	11.1091
46.799999	70.862	10.7771
47.500000	70.847	10.3212
48.200001	70.831	9.7223
48.700001	70.818	9.2387
49.400002	70.799	8.6137
50.000000	70.791	8.2207
50.799999	70.799	7.8897
51.500000	70.813	7.6725
52.200001	70.826	7.4362
53.000000	70.841	7.0687
53.799999	70.850	6.5634
54.500000	70.842	6.0907
55.200001	70.821	5.7055
56.000000	70.801	5.3837
57.000000	70.796	5.0111
58.000000	70.799	4.6281
59.000000	70.804	4.2774
60.000000	70.806	3.8894
60.799999	70.797	3.5350
61.500000	70.783	3.2235
62.200001	70.769	2.9332
63.000000	70.760	2.6351
64.000000	70.761	2.3015
65.000000	70.768	1.9733
66.000000	70.769	1.6163
67.000000	70.763	1.2541
68.000000	70.754	0.9465
69.000000	70.743	0.6864
70.000000	70.730	0.4097
71.000000	70.716	0.0993
72.000000	70.701	-0.2214
73.000000	70.683	-0.5483
74.000000	70.663	-0.8936
75.000000	70.645	-1.2220
76.199997	70.633	-1.5092
77.500000	70.629	-1.7538
78.800003	70.623	-2.0518
80.000000	70.614	-2.3727
81.199997	70.602	-2.7076
82.500000	70.588	-3.0431
83.800003	70.577	-3.3807
85.000000	70.563	-3.7365
86.199997	70.547	-4.0994
87.500000	70.533	-4.4678
88.500000	70.518	-4.7475
90.000000	70.481	-5.1786
91.199997	70.443	-5.5194
92.500000	70.402	-5.8911
93.800003	70.364	-6.3018
95.000000	70.334	-6.7352
96.199997	70.303	-7.1909
97.500000	70.268	-7.6818
98.800003	70.233	-8.1825
100.000000	70.207	-8.6405
101.500000	70.180	-9.1304
103.000000	70.146	-9.5065
104.400002	70.106	-9.8344
106.000000	70.057	-10.2681
107.500000	70.017	-10.7436
109.000000	69.983	-11.2401
110.599998	69.939	-11.7188
112.000000	69.889	-12.1003
113.800003	69.817	-12.5638
115.000000	69.773	-12.8555
117.199997	69.710	-13.3711
118.000000	69.693	-13.5567
120.599998	69.651	-14.2145
122.000000	69.624	-14.5610
124.099998	69.566	-14.9615
125.000000	69.534	-15.0954
126.500000	69.476	-15.2984
128.000000	69.419	-15.4929
131.500000	69.308	-15.9748
132.000000	69.292	-16.0553
134.000000	69.222	-16.3792
136.000000	69.149	-16.6665
138.000000	69.085	-16.9377
140.000000	69.029	-17.2511
143.000000	68.944	-17.7561
145.000000	68.882	-18.0610
147.500000	68.799	-18.3571
150.000000	68.718	-18.5558
152.500000	68.648	-18.7426
155.000000	68.588	-18.9351
157.500000	68.525	-19.1197
160.000000	68.454	-19.3307
162.500000	68.376	-19.5703
165.000000	68.288	-19.8204
167.500000	68.196	-20.0765
170.000000	68.110	-20.3425
172.500000	68.030	-20.6228
175.000000	67.950	-20.8981
177.500000	67.869	-21.1575
180.000000	67.793	-21.3655
182.500000	67.719	-21.4848
185.000000	67.644	-21.5436
187.500000	67.562	-21.5903
190.000000	67.476	-21.6232
192.500000	67.395	-21.6285
195.000000	67.325	-21.6165
197.500000	67.261	-21.6019
200.000000	67.200	-21.6025
203.000000	67.129	-21.6357
206.000000	67.056	-21.6894
209.000000	66.982	-21.7160
212.000000	66.912	-21.6951
214.000000	66.869	-21.6480
218.000000	66.789	-21.5164
220.000000	66.750	-21.4511
224.000000	66.665	-21.3154
227.000000	66.596	-21.1935
230.000000	66.526	-21.0254
233.000000	66.455	-20.7688
236.000000	66.384	-20.4001
240.000000	66.297	-19.7814
243.000000	66.244	-19.2818
247.000000	66.194	-18.6361
250.000000	66.185	-18.2130
254.000000	66.207	-17.7338
258.000000	66.248	-17.3506
262.000000	66.284	-17.1010
265.000000	66.303	-17.0007
269.000000	66.317	-16.9655
272.000000	66.322	-16.9974
276.000000	66.330	-17.0816
280.000000	66.343	-17.1392
285.000000	66.360	-17.1083
290.000000	66.374	-17.0396
295.000000	66.382	-17.0413
300.000000	66.385	-17.1530
304.000000	66.385	-17.2642
307.000000	66.387	-17.3462
311.000000	66.394	-17.4656
315.000000	66.405	-17.5983
320.000000	66.421	-17.7727
325.000000	66.432	-17.9619
330.000000	66.435	-18.1717
335.000000	66.438	-18.3498
340.000000	66.450	-18.4218
345.000000	66.472	-18.4126
350.000000	66.499	-18.3088
355.000000	66.525	-18.0269
360.000000	66.548	-17.5778
365.000000	66.567	-17.0579
370.000000	66.587	-16.5497
375.000000	66.614	-16.0838
382.000000	66.661	-15.4844
387.000000	66.689	-15.1029
395.000000	66.704	-14.6191
400.000000	66.697	-14.3809
406.000000	66.682	-14.1110
412.000000	66.669	-13.8605
418.000000	66.663	-13.5824
425.000000	66.663	-13.1646
431.000000	66.663	-12.7256
437.000000	66.664	-12.1934
444.000000	66.664	-11.4848
450.000000	66.659	-10.8267
455.000000	66.649	-10.2512
462.000000	66.632	-9.4183
468.000000	66.618	-8.6849
475.000000	66.609	-7.7854
482.000000	66.612	-6.8714
487.000000	66.617	-6.2455
494.000000	66.624	-5.4355
500.000000	66.628	-4.8197
508.000000	66.633	-4.1140
515.000000	66.642	-3.6031
522.000000	66.654	-3.1423
530.000000	66.667	-2.5877
538.000000	66.677	-1.9772
545.000000	66.687	-1.4285
552.000000	66.701	-0.8685
560.000000	66.718	-0.2239
570.000000	66.734	0.5420
580.000000	66.740	1.2723
590.000000	66.740	1.9909
600.000000	66.736	2.7249
608.000000	66.732	3.3313
615.000000	66.729	3.8802
622.000000	66.727	4.4494
630.000000	66.722	5.1309
640.000000	66.714	6.0484
650.000000	66.713	7.0109
660.000000	66.713	8.0252
670.000000	66.709	9.1457
680.000000	66.703	10.3664
690.000000	66.698	11.6670
700.000000	66.699	13.0095
710.000000	66.700	14.3616
720.000000	66.690	15.7321
730.000000	66.668	17.1122
740.000000	66.643	18.5009
750.000000	66.622	19.9147
762.000000	66.603	21.6797
775.000000	66.583	23.7183
788.000000	66.561	25.8735
800.000000	66.540	27.9112
812.000000	66.521	29.9733
825.000000	66.515	32.2223
838.000000	66.535	34.3672
850.000000	66.560	36.0709
862.000000	66.569	37.4109
875.000000	66.559	38.4868
885.000000	66.549	39.1050
900.000000	66.541	39.8080
912.000000	66.540	40.2778
925.000000	66.541	40.7268
938.000000	66.549	41.1218
950.000000	66.567	41.4723
962.000000	66.593	41.8316
975.000000	66.624	42.2518
988.000000	66.652	42.7258
1000.000000	66.679	43.2340
1015.000000	66.717	43.9739
1030.000000	66.758	44.7871
1044.000000	66.795	45.5253
1060.000000	66.836	46.2816
1075.000000	66.873	46.8926
1090.000000	66.910	47.4136
1106.000000	66.944	47.8803
1120.000000	66.968	48.2024
1138.000000	66.996	48.5061
1150.000000	67.019	48.6930
1172.000000	67.063	49.1456
1180.000000	67.081	49.3635
1206.000000	67.142	50.2398
1220.000000	67.172	50.7898
1241.000000	67.209	51.6749
1250.000000	67.223	52.0757
1265.000000	67.249	52.7802
1280.000000	67.276	53.5173
1315.000000	67.339	55.0732
1320.000000	67.348	55.2570
1340.000000	67.389	55.9113
1360.000000	67.442	56.5082
1380.000000	67.509	57.0938
1400.000000	67.583	57.6247
1430.000000	67.697	58.3034
1450.000000	67.789	58.7123
1475.000000	67.929	59.2125
1500.000000	68.087	59.6268
1525.000000	68.260	59.7976
1550.000000	68.439	59.6812
1575.000000	68.625	59.3722
1600.000000	68.821	58.9628
1625.000000	69.011	58.4220
1650.000000	69.192	57.7218
1675.000000	69.371	56.8982
1700.000000	69.553	56.0403
1725.000000	69.738	55.1864
1750.000000	69.925	54.3752
1775.000000	70.110	53.6047
1800.000000	70.290	52.8262
1825.000000	70.462	51.9853
1850.000000	70.625	51.0282
1875.000000	70.781	49.9652
1900.000000	70.933	48.8870
1925.000000	71.087	47.8537
1950.000000	71.243	46.8283
1975.000000	71.396	45.7303
2000.000000	71.541	44.5277
2030.000000	71.712	42.9917
2060.000000	71.880	41.4529
2090.000000	72.041	39.9826
2120.000000	72.195	38.6269
2140.000000	72.297	37.7845
2180.000000	72.495	36.1760
2200.000000	72.589	35.3860
2240.000000	72.776	33.8151
2270.000000	72.907	32.6219
2300.000000	73.028	31.4023
2330.000000	73.145	30.1695
2360.000000	73.265	28.9088
2400.000000	73.423	27.0908
2430.000000	73.532	25.5796
2470.000000	73.669	23.4408
2500.000000	73.766	21.7948
2540.000000	73.881	19.5402
2580.000000	73.980	17.2167
2620.000000	74.069	14.9349
2650.000000	74.133	13.2761
2690.000000	74.206	11.0095
2720.000000	74.249	9.1782
2760.000000	74.292	6.5245
2800.000000	74.322	3.6634
2850.000000	74.327	-0.1092
2900.000000	74.297	-3.8074
2950.000000	74.259	-7.0652
3000.000000	74.226	-9.7937
3040.000000	74.191	-11.8015
3070.000000	74.157	-13.3674
3110.000000	74.105	-15.6591
3150.000000	74.053	-18.1822
3200.000000	73.989	-21.5192
3250.000000	73.919	-24.8450
3300.000000	73.845	-27.8024
3350.000000	73.764	-29.8270
3400.000000	73.690	-30.2525
3450.000000	73.632	-28.8542
3500.000000	73.575	-26.0687
3550.000000	73.511	-22.5111
3600.000000	73.440	-18.5592
3650.000000	73.365	-14.3838
3700.000000	73.287	-10.0768
3750.000000	73.210	-5.7170
3820.000000	73.108	0.2681
3870.000000	73.035	4.3526
3950.000000	72.916	10.6520
4000.000000	72.834	14.5769
4060.000000	72.736	19.4803
4120.000000	72.646	24.6979
4180.000000	72.562	30.1315
4250.000000	72.465	36.6434
4310.000000	72.381	42.5446
4370.000000	72.304	49.0488
4440.000000	72.227	57.6146
4500.000000	72.167	65.7722
4550.000000	72.122	73.1002
4620.000000	72.068	84.0289
4680.000000	72.028	93.8780
4750.000000	71.990	105.8454
4820.000000	71.966	118.2108
4870.000000	71.955	127.1328
4940.000000	71.944	139.4458
5000.000000	71.933	149.6605
5080.000000	71.917	162.9681
5150.000000	71.916	174.7972
5220.000000	71.935	-172.9559
5300.000000	71.971	-158.6515
5380.000000	72.013	-144.3510
5450.000000	72.049	-131.9544
5520.000000	72.073	-119.7226
5600.000000	72.072	-105.9854
5700.000000	72.004	-88.8327
5800.000000	71.851	-71.2774
5900.000000	71.605	-53.3060
6000.000000	71.294	-34.7352
6080.000000	71.025	-19.4523
6150.000000	70.785	-6.0367
6220.000000	70.550	7.3073
6300.000000	70.304	22.4777
6400.000000	70.036	41.1891
6500.000000	69.811	59.6165
6600.000000	69.642	78.0614
6700.000000	69.530	96.6550
6800.000000	69.475	115.6898
6900.000000	69.490	135.6014
7000.000000	69.587	156.2101
7100.000000	69.757	176.7714
7200.000000	69.987	-163.0677
7300.000000	70.280	-143.0615
7400.000000	70.639	-123.0021
7500.000000	71.064	-103.0076
7620.000000	71.640	-79.6944
7750.000000	72.285	-56.3936
7880.000000	72.837	-36.3228
8000.000000	73.153	-20.5752
8120.000000	73.198	-6.6308
8250.000000	72.897	6.8494
8380.000000	72.238	18.1756
8500.000000	71.376	27.1031
8620.000000	70.378	35.8312
8750.000000	69.249	45.9500
8850.000000	68.398	54.3215
9000.000000	67.202	67.6183
9120.000000	66.321	78.5110
9250.000000	65.437	90.4572
9380.000000	64.632	102.9448
9500.000000	63.963	115.2297
9620.000000	63.366	128.1119
9750.000000	62.789	142.2358
9880.000000	62.269	156.0125
10000.000000	61.833	168.1414
10150.000000	61.340	-177.5443
10300.000000	60.916	-164.1080
10440.000000	60.586	-152.5039
10600.000000	60.280	-140.5417
10750.000000	60.060	-130.2770
10900.000000	59.903	-120.3414
11060.000000	59.804	-109.8796
11200.000000	59.772	-100.8862
11380.000000	59.813	-89.5254
11500.000000	59.899	-82.0674
11720.000000	60.193	-68.9387
11800.000000	60.346	-64.3895
12060.000000	61.039	-50.3307
12200.000000	61.554	-43.2014
12410.000000	62.565	-32.5963
12500.000000	63.103	-27.9380
12650.000000	64.147	-20.2200
12800.000000	65.364	-13.1888
13150.000000	68.448	-5.3973
13200.000000	68.842	-5.7487
13400.000000	70.069	-11.0833
13600.000000	70.483	-21.0712
13800.000000	69.940	-31.9147
14000.000000	68.569	-39.8701
14300.000000	65.610	-42.3752
14500.000000	63.476	-37.6888
14750.000000	61.000	-26.7662
15000.000000	58.913	-12.6047
15250.000000	57.216	2.8091
15500.000000	55.829	18.7407
15750.000000	54.689	34.8461
16000.000000	53.746	50.1001
16250.000000	52.941	63.8131
16500.000000	52.225	75.8734
16750.000000	51.543	86.1659
17000.000000	50.796	95.1334
17250.000000	49.802	103.5292
17500.000000	48.402	112.6587
17750.000000	46.632	126.4418
18000.000000	44.987	158.1438
18250.000000	44.322	-138.3469
18500.000000	44.774	-96.4437
18750.000000	45.712	-70.7634
19000.000000	46.771	-48.9259
19250.000000	47.839	-30.4951
19500.000000	48.810	-16.3831
19750.000000	49.548	-6.7445
20000.000000	49.931	-1.7529
