* Measurement data measured by REW V5.30 beta 1
* Source: Frequency response averaged data
* Format: Averaged data produced from the rms magnitudes of RMS Average 1, RMS Average 1
* Dated: 10-Nov-2023 22:30:53
* REW Settings:
*  C-weighting compensation: Off
*  Target level: 75.0 dB
* Note: 
* Measurement: OneOdio A10 R
* Smoothing: 1/12 octave
* Frequency Step: 1/48 octave
* Start Frequency: 20.300 Hz
*
* Freq(Hz)	SPL(dB)
20.299999	66.350
20.600000	65.830
20.900000	65.185
21.200001	64.873
21.400000	64.955
21.799999	65.563
22.000000	65.912
22.400000	66.440
22.700001	66.623
23.000000	66.631
23.299999	66.483
23.600000	66.200
24.000000	65.634
24.299999	65.107
24.700001	64.416
25.000000	64.084
25.400000	64.136
25.799999	64.765
26.200001	65.714
26.500000	66.455
26.900000	67.320
27.200001	67.831
27.600000	68.348
28.000000	68.772
28.500000	69.309
29.000000	69.819
29.500000	70.095
30.000000	70.006
30.400000	69.741
30.700001	69.557
31.100000	69.547
31.500000	69.939
32.000000	70.749
32.500000	71.404
33.000000	71.643
33.500000	71.595
34.000000	71.587
34.500000	71.795
35.000000	72.077
35.500000	72.240
36.000000	72.313
36.500000	72.470
37.000000	72.743
37.500000	72.972
38.200001	72.998
38.700001	72.895
39.500000	72.741
40.000000	72.510
40.599998	71.987
41.200001	71.632
41.799999	72.045
42.500000	73.140
43.099998	73.866
43.700001	74.126
44.400002	73.991
45.000000	73.772
45.500000	73.647
46.200001	73.647
46.799999	73.845
47.500000	74.221
48.200001	74.503
48.700001	74.522
49.400002	74.309
50.000000	74.094
50.799999	74.143
51.500000	74.556
52.200001	75.113
53.000000	75.667
53.799999	76.025
54.500000	76.236
55.200001	76.469
56.000000	76.780
57.000000	77.015
58.000000	76.912
59.000000	76.607
60.000000	76.339
60.799999	76.226
61.500000	76.177
62.200001	76.166
63.000000	76.236
64.000000	76.479
65.000000	76.809
66.000000	77.069
67.000000	77.162
68.000000	77.157
69.000000	77.199
70.000000	77.300
71.000000	77.345
72.000000	77.269
73.000000	77.116
74.000000	76.998
75.000000	77.005
76.199997	77.137
77.500000	77.339
78.800003	77.561
80.000000	77.648
81.199997	77.560
82.500000	77.371
83.800003	77.195
85.000000	77.090
86.199997	77.099
87.500000	77.209
88.500000	77.297
90.000000	77.399
91.199997	77.494
92.500000	77.637
93.800003	77.778
95.000000	77.850
96.199997	77.873
97.500000	77.890
98.800003	77.929
100.000000	77.990
101.500000	78.108
103.000000	78.254
104.400002	78.392
106.000000	78.565
107.500000	78.727
109.000000	78.871
110.599998	79.019
112.000000	79.158
113.800003	79.353
115.000000	79.487
117.199997	79.703
118.000000	79.773
120.599998	79.988
122.000000	80.094
124.099998	80.242
125.000000	80.302
126.500000	80.401
128.000000	80.507
131.500000	80.807
132.000000	80.854
134.000000	81.038
136.000000	81.198
138.000000	81.347
140.000000	81.502
143.000000	81.770
145.000000	81.956
147.500000	82.157
150.000000	82.355
152.500000	82.565
155.000000	82.746
157.500000	82.894
160.000000	83.045
162.500000	83.214
165.000000	83.379
167.500000	83.539
170.000000	83.704
172.500000	83.869
175.000000	84.027
177.500000	84.177
180.000000	84.328
182.500000	84.484
185.000000	84.642
187.500000	84.795
190.000000	84.945
192.500000	85.102
195.000000	85.277
197.500000	85.470
200.000000	85.674
203.000000	85.916
206.000000	86.125
209.000000	86.284
212.000000	86.387
214.000000	86.416
218.000000	86.382
220.000000	86.329
224.000000	86.189
227.000000	86.059
230.000000	85.897
233.000000	85.712
236.000000	85.536
240.000000	85.351
243.000000	85.237
247.000000	85.076
250.000000	84.937
254.000000	84.728
258.000000	84.503
262.000000	84.269
265.000000	84.092
269.000000	83.863
272.000000	83.708
276.000000	83.530
280.000000	83.372
285.000000	83.205
290.000000	83.109
295.000000	83.093
300.000000	83.139
304.000000	83.204
307.000000	83.268
311.000000	83.377
315.000000	83.518
320.000000	83.729
325.000000	83.973
330.000000	84.256
335.000000	84.566
340.000000	84.877
345.000000	85.168
350.000000	85.434
355.000000	85.675
360.000000	85.890
365.000000	86.076
370.000000	86.227
375.000000	86.343
382.000000	86.464
387.000000	86.536
395.000000	86.640
400.000000	86.693
406.000000	86.731
412.000000	86.737
418.000000	86.719
425.000000	86.680
431.000000	86.641
437.000000	86.607
444.000000	86.588
450.000000	86.592
455.000000	86.608
462.000000	86.636
468.000000	86.657
475.000000	86.663
482.000000	86.645
487.000000	86.619
494.000000	86.572
500.000000	86.521
508.000000	86.442
515.000000	86.363
522.000000	86.279
530.000000	86.178
538.000000	86.071
545.000000	85.975
552.000000	85.880
560.000000	85.780
570.000000	85.670
580.000000	85.571
590.000000	85.471
600.000000	85.367
608.000000	85.283
615.000000	85.209
622.000000	85.136
630.000000	85.051
640.000000	84.945
650.000000	84.846
660.000000	84.758
670.000000	84.676
680.000000	84.588
690.000000	84.495
700.000000	84.397
710.000000	84.296
720.000000	84.192
730.000000	84.088
740.000000	83.987
750.000000	83.891
762.000000	83.775
775.000000	83.639
788.000000	83.495
800.000000	83.355
812.000000	83.209
825.000000	83.051
838.000000	82.904
850.000000	82.778
862.000000	82.650
875.000000	82.504
885.000000	82.387
900.000000	82.215
912.000000	82.086
925.000000	81.955
938.000000	81.823
950.000000	81.700
962.000000	81.580
975.000000	81.456
988.000000	81.337
1000.000000	81.230
1015.000000	81.101
1030.000000	80.982
1044.000000	80.886
1060.000000	80.792
1075.000000	80.715
1090.000000	80.655
1106.000000	80.615
1120.000000	80.606
1138.000000	80.628
1150.000000	80.666
1172.000000	80.798
1180.000000	80.872
1206.000000	81.212
1220.000000	81.445
1241.000000	81.804
1250.000000	81.941
1265.000000	82.124
1280.000000	82.235
1315.000000	82.207
1320.000000	82.179
1340.000000	82.029
1360.000000	81.848
1380.000000	81.666
1400.000000	81.514
1430.000000	81.390
1450.000000	81.381
1475.000000	81.418
1500.000000	81.464
1525.000000	81.503
1550.000000	81.553
1575.000000	81.634
1600.000000	81.764
1625.000000	81.960
1650.000000	82.216
1675.000000	82.500
1700.000000	82.785
1725.000000	83.059
1750.000000	83.321
1775.000000	83.574
1800.000000	83.826
1825.000000	84.086
1850.000000	84.353
1875.000000	84.624
1900.000000	84.898
1925.000000	85.176
1950.000000	85.456
1975.000000	85.732
2000.000000	86.002
2030.000000	86.320
2060.000000	86.626
2090.000000	86.911
2120.000000	87.169
2140.000000	87.325
2180.000000	87.614
2200.000000	87.766
2240.000000	88.125
2270.000000	88.441
2300.000000	88.767
2330.000000	89.084
2360.000000	89.383
2400.000000	89.752
2430.000000	90.007
2470.000000	90.323
2500.000000	90.542
2540.000000	90.817
2580.000000	91.082
2620.000000	91.342
2650.000000	91.531
2690.000000	91.767
2720.000000	91.930
2760.000000	92.127
2800.000000	92.306
2850.000000	92.513
2900.000000	92.705
2950.000000	92.873
3000.000000	93.018
3040.000000	93.117
3070.000000	93.181
3110.000000	93.251
3150.000000	93.311
3200.000000	93.369
3250.000000	93.406
3300.000000	93.421
3350.000000	93.422
3400.000000	93.418
3450.000000	93.409
3500.000000	93.391
3550.000000	93.369
3600.000000	93.351
3650.000000	93.354
3700.000000	93.401
3750.000000	93.479
3820.000000	93.543
3870.000000	93.483
3950.000000	93.156
4000.000000	92.843
4060.000000	92.421
4120.000000	91.991
4180.000000	91.571
4250.000000	91.093
4310.000000	90.684
4370.000000	90.271
4440.000000	89.792
4500.000000	89.390
4550.000000	89.064
4620.000000	88.620
4680.000000	88.252
4750.000000	87.842
4820.000000	87.465
4870.000000	87.232
4940.000000	86.990
5000.000000	86.892
5080.000000	86.933
5150.000000	87.088
5220.000000	87.300
5300.000000	87.596
5380.000000	87.949
5450.000000	88.261
5520.000000	88.518
5600.000000	88.713
5700.000000	88.822
5800.000000	88.832
5900.000000	88.796
6000.000000	88.721
6080.000000	88.604
6150.000000	88.441
6220.000000	88.215
6300.000000	87.881
6400.000000	87.358
6500.000000	86.728
6600.000000	86.009
6700.000000	85.220
6800.000000	84.394
6900.000000	83.577
7000.000000	82.816
7100.000000	82.151
7200.000000	81.606
7300.000000	81.197
7400.000000	80.941
7500.000000	80.855
7620.000000	80.971
7750.000000	81.298
7880.000000	81.734
8000.000000	82.160
8120.000000	82.550
8250.000000	82.854
8380.000000	82.942
8500.000000	82.781
8620.000000	82.400
8750.000000	81.824
8850.000000	81.345
9000.000000	80.713
9120.000000	80.397
9250.000000	80.362
9380.000000	80.675
9500.000000	81.208
9620.000000	81.869
9750.000000	82.606
9880.000000	83.248
10000.000000	83.678
10150.000000	83.942
10300.000000	83.913
10440.000000	83.697
10600.000000	83.383
10750.000000	83.190
10900.000000	83.210
11060.000000	83.478
11200.000000	83.846
11380.000000	84.314
11500.000000	84.518
11720.000000	84.512
11800.000000	84.374
12060.000000	83.432
12200.000000	82.633
12410.000000	81.120
12500.000000	80.374
12650.000000	79.017
12800.000000	77.528
13150.000000	73.799
13200.000000	73.332
13400.000000	72.085
13600.000000	71.982
13800.000000	72.273
14000.000000	72.268
14300.000000	71.656
14500.000000	71.472
14750.000000	72.019
15000.000000	72.964
15250.000000	73.804
15500.000000	74.403
15750.000000	74.830
16000.000000	75.134
16250.000000	75.192
16500.000000	74.797
16750.000000	73.948
17000.000000	73.082
17250.000000	72.772
17500.000000	73.041
17750.000000	73.513
18000.000000	73.950
18250.000000	74.272
18500.000000	74.436
18750.000000	74.440
19000.000000	74.328
19250.000000	74.159
19500.000000	73.991
19750.000000	73.860
20000.000000	73.788
