* Measurement data measured by REW V5.31.3
* Source: Microphone (USB Sound Device        ), MICROPHONE (Master Volume), L, volume: 0.250
* Format: 256k Log Swept Sine, 1 sweep at -12.0 dBFS with no timing reference
* Dated: 18-Jan-2025 14:56:23
* REW Settings:
*  C-weighting compensation: Off
*  Target level: 75.0 dB
* Note: 
* Measurement: OPB3 Ba R
* Smoothing: 1/12 octave
* Frequency Step: 1/48 octave
* Start Frequency: 20.300 Hz
*
* Freq(Hz)	SPL(dB)	Phase(degrees)
20.299999	82.272	-172.8891
20.600000	82.268	-173.1589
20.900000	82.262	-173.5008
21.200001	82.257	-173.8769
21.400000	82.255	-174.1405
21.799999	82.251	-174.6880
22.000000	82.250	-174.9655
22.400000	82.248	-175.5081
22.700001	82.248	-175.8913
23.000000	82.249	-176.2504
23.299999	82.254	-176.5907
23.600000	82.260	-176.9227
24.000000	82.269	-177.3711
24.299999	82.274	-177.7196
24.700001	82.279	-178.2002
25.000000	82.281	-178.5672
25.400000	82.285	-179.0571
25.799999	82.291	-179.5432
26.200001	82.299	179.9736
26.500000	82.306	179.6118
26.900000	82.315	179.1297
27.200001	82.321	178.7683
27.600000	82.329	178.2859
28.000000	82.336	177.8005
28.500000	82.346	177.1853
29.000000	82.355	176.5598
29.500000	82.364	175.9280
30.000000	82.373	175.2943
30.400000	82.377	174.7882
30.700001	82.379	174.4103
31.100000	82.379	173.9096
31.500000	82.378	173.4113
32.000000	82.376	172.7823
32.500000	82.375	172.1314
33.000000	82.373	171.4525
33.500000	82.366	170.7614
34.000000	82.356	170.0872
34.500000	82.345	169.4477
35.000000	82.335	168.8351
35.500000	82.328	168.2263
36.000000	82.320	167.6049
36.500000	82.309	166.9733
37.000000	82.294	166.3454
37.500000	82.275	165.7335
38.200001	82.244	164.9060
38.700001	82.222	164.3232
39.500000	82.187	163.3669
40.000000	82.164	162.7430
40.599998	82.132	161.9823
41.200001	82.098	161.2403
41.799999	82.064	160.5391
42.500000	82.025	159.7671
43.099998	81.990	159.1277
43.700001	81.950	158.4991
44.400002	81.900	157.7718
45.000000	81.854	157.1458
45.500000	81.813	156.6194
46.200001	81.751	155.8787
46.799999	81.695	155.2472
47.500000	81.628	154.5231
48.200001	81.565	153.8177
48.700001	81.524	153.3243
49.400002	81.472	152.6461
50.000000	81.425	152.0803
50.799999	81.349	151.3554
51.500000	81.274	150.7428
52.200001	81.196	150.1338
53.000000	81.110	149.4288
53.799999	81.025	148.7170
54.500000	80.948	148.1027
55.200001	80.869	147.5071
56.000000	80.777	146.8468
57.000000	80.664	146.0521
58.000000	80.553	145.3292
59.000000	80.442	144.6752
60.000000	80.328	144.0263
60.799999	80.236	143.4936
61.500000	80.156	143.0250
62.200001	80.074	142.5706
63.000000	79.979	142.0926
64.000000	79.856	141.5583
65.000000	79.735	141.0417
66.000000	79.617	140.5147
67.000000	79.504	139.9762
68.000000	79.388	139.4271
69.000000	79.266	138.8847
70.000000	79.138	138.3759
71.000000	79.011	137.9301
72.000000	78.889	137.5496
73.000000	78.770	137.2086
74.000000	78.651	136.8721
75.000000	78.532	136.5156
76.199997	78.388	136.0803
77.500000	78.231	135.6529
78.800003	78.076	135.2823
80.000000	77.937	134.9648
81.199997	77.798	134.6593
82.500000	77.643	134.3420
83.800003	77.491	134.0330
85.000000	77.355	133.7567
86.199997	77.217	133.4915
87.500000	77.065	133.2351
88.500000	76.947	133.0745
90.000000	76.769	132.9012
91.199997	76.631	132.8162
92.500000	76.488	132.7634
93.800003	76.346	132.7180
95.000000	76.212	132.6510
96.199997	76.076	132.5684
97.500000	75.930	132.4830
98.800003	75.786	132.4117
100.000000	75.653	132.3705
101.500000	75.489	132.3732
103.000000	75.324	132.4430
104.400002	75.174	132.5482
106.000000	75.010	132.6609
107.500000	74.862	132.7526
109.000000	74.714	132.8769
110.599998	74.554	133.0442
112.000000	74.414	133.1902
113.800003	74.239	133.3950
115.000000	74.128	133.5424
117.199997	73.933	133.8058
118.000000	73.863	133.9082
120.599998	73.632	134.3070
122.000000	73.507	134.5794
124.099998	73.325	135.0625
125.000000	73.248	135.2888
126.500000	73.124	135.6831
128.000000	73.002	136.0814
131.500000	72.729	136.9476
132.000000	72.693	137.0636
134.000000	72.552	137.5191
136.000000	72.413	138.0006
138.000000	72.271	138.5185
140.000000	72.131	139.0317
143.000000	71.938	139.8280
145.000000	71.815	140.4033
147.500000	71.665	141.1670
150.000000	71.521	141.9564
152.500000	71.384	142.7485
155.000000	71.258	143.5069
157.500000	71.138	144.2452
160.000000	71.025	144.9917
162.500000	70.917	145.7886
165.000000	70.811	146.6226
167.500000	70.703	147.4459
170.000000	70.598	148.2696
172.500000	70.499	149.1095
175.000000	70.413	149.9368
177.500000	70.336	150.7348
180.000000	70.256	151.5180
182.500000	70.171	152.2963
185.000000	70.079	153.0959
187.500000	69.978	153.9430
190.000000	69.877	154.8084
192.500000	69.787	155.6502
195.000000	69.716	156.4607
197.500000	69.660	157.2524
200.000000	69.614	158.0290
203.000000	69.576	158.9181
206.000000	69.561	159.7609
209.000000	69.565	160.6267
212.000000	69.569	161.5445
214.000000	69.566	162.1609
218.000000	69.555	163.3469
220.000000	69.551	163.9326
224.000000	69.547	165.1126
227.000000	69.543	165.9613
230.000000	69.536	166.7545
233.000000	69.526	167.4971
236.000000	69.520	168.1988
240.000000	69.527	169.0859
243.000000	69.537	169.7210
247.000000	69.544	170.5478
250.000000	69.548	171.1478
254.000000	69.562	171.9195
258.000000	69.580	172.6599
262.000000	69.600	173.3813
265.000000	69.615	173.9308
269.000000	69.638	174.6688
272.000000	69.659	175.2164
276.000000	69.690	175.9100
280.000000	69.728	176.5414
285.000000	69.783	177.2677
290.000000	69.836	177.9122
295.000000	69.883	178.4856
300.000000	69.926	179.0082
304.000000	69.956	179.4108
307.000000	69.974	179.7120
311.000000	69.994	-179.8910
315.000000	70.014	-179.5163
320.000000	70.040	-179.0886
325.000000	70.069	-178.6677
330.000000	70.103	-178.2485
335.000000	70.145	-177.8775
340.000000	70.193	-177.5474
345.000000	70.244	-177.2566
350.000000	70.289	-177.0063
355.000000	70.324	-176.7832
360.000000	70.355	-176.5761
365.000000	70.383	-176.3922
370.000000	70.404	-176.2298
375.000000	70.414	-176.0888
382.000000	70.416	-175.9159
387.000000	70.420	-175.8018
395.000000	70.438	-175.6115
400.000000	70.450	-175.4799
406.000000	70.458	-175.3327
412.000000	70.462	-175.2156
418.000000	70.460	-175.0995
425.000000	70.453	-174.9606
431.000000	70.444	-174.8134
437.000000	70.430	-174.6395
444.000000	70.406	-174.4493
450.000000	70.380	-174.2720
455.000000	70.357	-174.0886
462.000000	70.326	-173.8120
468.000000	70.297	-173.5974
475.000000	70.265	-173.3567
482.000000	70.242	-173.0901
487.000000	70.232	-172.8875
494.000000	70.221	-172.6248
500.000000	70.215	-172.4315
508.000000	70.208	-172.2104
515.000000	70.198	-172.0475
522.000000	70.179	-171.8852
530.000000	70.149	-171.6672
538.000000	70.113	-171.4231
545.000000	70.078	-171.1996
552.000000	70.040	-170.9623
560.000000	69.996	-170.6709
570.000000	69.938	-170.2751
580.000000	69.877	-169.8247
590.000000	69.819	-169.3772
600.000000	69.761	-168.9340
608.000000	69.720	-168.5551
615.000000	69.689	-168.2241
622.000000	69.659	-167.8939
630.000000	69.621	-167.4852
640.000000	69.560	-166.8948
650.000000	69.488	-166.2630
660.000000	69.419	-165.6644
670.000000	69.360	-165.1158
680.000000	69.309	-164.5627
690.000000	69.264	-163.9794
700.000000	69.219	-163.3849
710.000000	69.170	-162.7484
720.000000	69.117	-162.0388
730.000000	69.064	-161.3022
740.000000	69.014	-160.5838
750.000000	68.970	-159.8422
762.000000	68.927	-158.8494
775.000000	68.883	-157.7195
788.000000	68.845	-156.6217
800.000000	68.822	-155.5960
812.000000	68.806	-154.5192
825.000000	68.792	-153.3708
838.000000	68.784	-152.2940
850.000000	68.784	-151.3442
862.000000	68.789	-150.4018
875.000000	68.799	-149.3709
885.000000	68.808	-148.5751
900.000000	68.826	-147.3853
912.000000	68.844	-146.4320
925.000000	68.870	-145.3939
938.000000	68.904	-144.3542
950.000000	68.941	-143.4199
962.000000	68.983	-142.5384
975.000000	69.030	-141.6463
988.000000	69.078	-140.7962
1000.000000	69.127	-140.0361
1015.000000	69.189	-139.1435
1030.000000	69.248	-138.3471
1044.000000	69.299	-137.6529
1060.000000	69.358	-136.8581
1075.000000	69.419	-136.1065
1090.000000	69.484	-135.3746
1106.000000	69.553	-134.6306
1120.000000	69.610	-134.0128
1138.000000	69.679	-133.2568
1150.000000	69.725	-132.7814
1172.000000	69.813	-131.9274
1180.000000	69.845	-131.6161
1206.000000	69.951	-130.6342
1220.000000	70.014	-130.1302
1241.000000	70.114	-129.4181
1250.000000	70.159	-129.1210
1265.000000	70.235	-128.6203
1280.000000	70.315	-128.1038
1315.000000	70.484	-126.8049
1320.000000	70.501	-126.6050
1340.000000	70.540	-125.7681
1360.000000	70.531	-124.8860
1380.000000	70.487	-123.9704
1400.000000	70.435	-123.0192
1430.000000	70.394	-121.5230
1450.000000	70.404	-120.4904
1475.000000	70.457	-119.1796
1500.000000	70.544	-117.8698
1525.000000	70.655	-116.5745
1550.000000	70.788	-115.2608
1575.000000	70.940	-113.9634
1600.000000	71.105	-112.7510
1625.000000	71.283	-111.6174
1650.000000	71.467	-110.5851
1675.000000	71.649	-109.6661
1700.000000	71.825	-108.8064
1725.000000	72.000	-107.9839
1750.000000	72.177	-107.2071
1775.000000	72.352	-106.4769
1800.000000	72.523	-105.7837
1825.000000	72.692	-105.1067
1850.000000	72.861	-104.4397
1875.000000	73.031	-103.7848
1900.000000	73.203	-103.1535
1925.000000	73.376	-102.5519
1950.000000	73.552	-101.9765
1975.000000	73.730	-101.4378
2000.000000	73.911	-100.9496
2030.000000	74.132	-100.4307
2060.000000	74.360	-99.9787
2090.000000	74.593	-99.5889
2120.000000	74.825	-99.2653
2140.000000	74.978	-99.0941
2180.000000	75.285	-98.8324
2200.000000	75.439	-98.7278
2240.000000	75.743	-98.5900
2270.000000	75.972	-98.5915
2300.000000	76.199	-98.6875
2330.000000	76.424	-98.8433
2360.000000	76.648	-99.0211
2400.000000	76.947	-99.3082
2430.000000	77.174	-99.6107
2470.000000	77.470	-100.1956
2500.000000	77.684	-100.7723
2540.000000	77.950	-101.6688
2580.000000	78.195	-102.6635
2620.000000	78.424	-103.7441
2650.000000	78.585	-104.6118
2690.000000	78.783	-105.8367
2720.000000	78.916	-106.8036
2760.000000	79.075	-108.1487
2800.000000	79.216	-109.5414
2850.000000	79.373	-111.3232
2900.000000	79.498	-113.1153
2950.000000	79.584	-114.8718
3000.000000	79.632	-116.5820
3040.000000	79.653	-117.9060
3070.000000	79.662	-118.8625
3110.000000	79.662	-120.0730
3150.000000	79.645	-121.1986
3200.000000	79.609	-122.5096
3250.000000	79.566	-123.7240
3300.000000	79.514	-124.8136
3350.000000	79.451	-125.7570
3400.000000	79.378	-126.5602
3450.000000	79.296	-127.2440
3500.000000	79.208	-127.8232
3550.000000	79.116	-128.3038
3600.000000	79.029	-128.6924
3650.000000	78.954	-129.0025
3700.000000	78.896	-129.2251
3750.000000	78.856	-129.3688
3820.000000	78.828	-129.4862
3870.000000	78.825	-129.5133
3950.000000	78.840	-129.4876
4000.000000	78.854	-129.4261
4060.000000	78.874	-129.3051
4120.000000	78.904	-129.1532
4180.000000	78.948	-129.0332
4250.000000	79.015	-129.0034
4310.000000	79.085	-129.0892
4370.000000	79.172	-129.3006
4440.000000	79.301	-129.7298
4500.000000	79.438	-130.2713
4550.000000	79.571	-130.8620
4620.000000	79.779	-131.9574
4680.000000	79.964	-133.1884
4750.000000	80.167	-134.9720
4820.000000	80.339	-137.1223
4870.000000	80.434	-138.8827
4940.000000	80.515	-141.6439
5000.000000	80.526	-144.2546
5080.000000	80.434	-147.9632
5150.000000	80.241	-151.2317
5220.000000	79.940	-154.2795
5300.000000	79.486	-157.2191
5380.000000	78.942	-159.3841
5450.000000	78.425	-160.5901
5520.000000	77.902	-161.1907
5600.000000	77.332	-161.2275
5700.000000	76.693	-160.4393
5800.000000	76.166	-158.9357
5900.000000	75.768	-157.0402
6000.000000	75.487	-155.0535
6080.000000	75.325	-153.5009
6150.000000	75.213	-152.1873
6220.000000	75.122	-150.9182
6300.000000	75.041	-149.5207
6400.000000	74.980	-147.8566
6500.000000	74.968	-146.3011
6600.000000	75.012	-144.8828
6700.000000	75.121	-143.6516
6800.000000	75.298	-142.6739
6900.000000	75.544	-142.0435
7000.000000	75.856	-141.8809
7100.000000	76.231	-142.3336
7200.000000	76.661	-143.5581
7300.000000	77.118	-145.7162
7400.000000	77.556	-148.9717
7500.000000	77.918	-153.3815
7620.000000	78.148	-159.9406
7750.000000	78.009	-167.7699
7880.000000	77.387	-175.0110
8000.000000	76.439	179.9097
8120.000000	75.266	176.8741
8250.000000	73.916	175.7599
8380.000000	72.623	176.2929
8500.000000	71.544	177.7033
8620.000000	70.583	179.6833
8750.000000	69.656	-177.7026
8850.000000	69.000	-175.3758
9000.000000	68.078	-171.2727
9120.000000	67.382	-167.3325
9250.000000	66.674	-162.2035
9380.000000	66.047	-155.9123
9500.000000	65.620	-148.8678
9620.000000	65.451	-140.7519
9750.000000	65.660	-131.6500
9880.000000	66.255	-123.8325
10000.000000	67.002	-118.8551
10150.000000	67.941	-115.6710
10300.000000	68.704	-114.6468
10440.000000	69.231	-114.3796
10600.000000	69.691	-113.9586
10750.000000	70.076	-113.1449
10900.000000	70.488	-111.9848
11060.000000	70.996	-110.5911
11200.000000	71.505	-109.4476
11380.000000	72.238	-108.3068
11500.000000	72.767	-107.8326
11720.000000	73.811	-107.6279
11800.000000	74.215	-107.7538
12060.000000	75.660	-108.7177
12200.000000	76.578	-109.6026
12410.000000	78.204	-112.2141
12500.000000	78.962	-114.2177
12650.000000	80.214	-119.1572
12800.000000	81.343	-126.1848
13150.000000	82.906	-149.3773
13200.000000	82.960	-153.2010
13400.000000	82.681	-168.6710
13600.000000	81.665	177.2176
13800.000000	80.125	166.0722
14000.000000	78.347	158.5312
14300.000000	75.785	153.4496
14500.000000	74.383	153.2246
14750.000000	73.056	155.2675
15000.000000	72.169	158.9455
15250.000000	71.661	163.4484
15500.000000	71.507	167.9792
15750.000000	71.751	171.5454
16000.000000	72.423	173.0466
16250.000000	73.405	171.8112
16500.000000	74.488	167.9207
16750.000000	75.519	161.9038
17000.000000	76.421	154.2349
17250.000000	77.136	145.1534
17500.000000	77.575	134.8949
17750.000000	77.648	124.0682
18000.000000	77.352	113.7593
18250.000000	76.838	105.0141
18500.000000	76.365	97.9366
18750.000000	76.074	91.4283
19000.000000	75.853	84.3272
19250.000000	75.508	76.5314
19500.000000	74.966	68.7784
19750.000000	74.338	62.1545
20000.000000	73.908	58.2092
