* Measurement data measured by REW V5.31.3
* Source: Microphone (USB Sound Device        ), MICROPHONE (Master Volume), L, volume: 0.250
* Format: 256k Log Swept Sine, 1 sweep at -12.0 dBFS with no timing reference
* Dated: 18-Jan-2025 14:55:13
* REW Settings:
*  C-weighting compensation: Off
*  Target level: 75.0 dB
* Note: 
* Measurement: OPB3 L
* Smoothing: 1/12 octave
* Frequency Step: 1/48 octave
* Start Frequency: 20.300 Hz
*
* Freq(Hz)	SPL(dB)	Phase(degrees)
20.299999	76.953	-178.8176
20.600000	76.986	-179.4526
20.900000	77.026	179.7532
21.200001	77.067	178.9133
21.400000	77.094	178.3531
21.799999	77.150	177.2546
22.000000	77.181	176.7168
22.400000	77.248	175.6526
22.700001	77.301	174.8518
23.000000	77.354	174.0413
23.299999	77.403	173.2223
23.600000	77.446	172.4028
24.000000	77.491	171.3282
24.299999	77.519	170.5453
24.700001	77.551	169.5323
25.000000	77.575	168.7858
25.400000	77.610	167.7902
25.799999	77.645	166.7823
26.200001	77.680	165.7656
26.500000	77.705	165.0060
26.900000	77.737	164.0089
27.200001	77.762	163.2759
27.600000	77.796	162.3152
28.000000	77.831	161.3636
28.500000	77.874	160.1724
29.000000	77.911	158.9741
29.500000	77.942	157.7769
30.000000	77.970	156.5930
30.400000	77.993	155.6575
30.700001	78.012	154.9601
31.100000	78.039	154.0330
31.500000	78.067	153.1125
32.000000	78.099	151.9945
32.500000	78.126	150.9468
33.000000	78.152	149.9773
33.500000	78.180	149.0412
34.000000	78.212	148.0690
34.500000	78.243	147.0204
35.000000	78.268	145.9087
35.500000	78.288	144.7758
36.000000	78.308	143.6545
36.500000	78.329	142.5565
37.000000	78.352	141.4819
37.500000	78.373	140.4290
38.200001	78.400	138.9890
38.700001	78.417	137.9886
39.500000	78.446	136.4414
40.000000	78.470	135.4821
40.599998	78.501	134.2901
41.200001	78.529	133.0479
41.799999	78.550	131.8052
42.500000	78.572	130.4039
43.099998	78.593	129.2206
43.700001	78.610	128.0310
44.400002	78.620	126.6599
45.000000	78.628	125.5111
45.500000	78.636	124.5547
46.200001	78.649	123.2009
46.799999	78.660	122.0509
47.500000	78.679	120.7393
48.200001	78.710	119.4146
48.700001	78.736	118.4337
49.400002	78.769	117.0298
50.000000	78.786	115.8401
50.799999	78.794	114.3056
51.500000	78.795	112.9807
52.200001	78.793	111.6326
53.000000	78.789	110.0585
53.799999	78.786	108.4703
54.500000	78.788	107.0779
55.200001	78.794	105.6846
56.000000	78.802	104.0968
57.000000	78.803	102.1292
58.000000	78.789	100.1847
59.000000	78.772	98.2515
60.000000	78.762	96.3013
60.799999	78.756	94.7094
61.500000	78.748	93.2892
62.200001	78.731	91.8589
63.000000	78.705	90.2417
64.000000	78.669	88.2785
65.000000	78.632	86.3667
66.000000	78.592	84.4697
67.000000	78.549	82.5668
68.000000	78.498	80.6589
69.000000	78.436	78.7593
70.000000	78.364	76.8935
71.000000	78.288	75.0840
72.000000	78.212	73.3273
73.000000	78.133	71.6074
74.000000	78.048	69.9120
75.000000	77.959	68.2229
76.199997	77.855	66.1780
77.500000	77.746	63.9603
78.800003	77.633	61.7980
80.000000	77.516	59.8759
81.199997	77.392	58.0179
82.500000	77.259	56.0585
83.800003	77.133	54.1259
85.000000	77.021	52.3603
86.199997	76.907	50.6402
87.500000	76.775	48.8385
88.500000	76.668	47.4965
90.000000	76.506	45.5727
91.199997	76.376	44.1122
92.500000	76.234	42.5621
93.800003	76.089	41.0041
95.000000	75.954	39.5782
96.199997	75.820	38.2000
97.500000	75.679	36.7654
98.800003	75.545	35.3607
100.000000	75.424	34.0750
101.500000	75.273	32.5104
103.000000	75.127	31.0227
104.400002	74.995	29.7034
106.000000	74.845	28.2250
107.500000	74.711	26.8113
109.000000	74.582	25.3875
110.599998	74.445	23.8849
112.000000	74.322	22.5771
113.800003	74.164	20.9127
115.000000	74.061	19.8239
117.199997	73.875	17.9100
118.000000	73.810	17.2359
120.599998	73.605	15.0660
122.000000	73.497	13.9411
124.099998	73.339	12.3706
125.000000	73.274	11.7321
126.500000	73.172	10.6823
128.000000	73.078	9.6165
131.500000	72.864	6.9934
132.000000	72.833	6.6072
134.000000	72.704	5.0605
136.000000	72.575	3.5625
138.000000	72.443	2.1409
140.000000	72.313	0.7737
143.000000	72.129	-1.2219
145.000000	72.011	-2.5290
147.500000	71.872	-4.1102
150.000000	71.749	-5.6744
152.500000	71.637	-7.2522
155.000000	71.522	-8.8337
157.500000	71.404	-10.4171
160.000000	71.287	-11.9751
162.500000	71.174	-13.5104
165.000000	71.071	-15.0281
167.500000	70.972	-16.5096
170.000000	70.874	-17.9530
172.500000	70.776	-19.3686
175.000000	70.683	-20.7814
177.500000	70.595	-22.1482
180.000000	70.507	-23.4341
182.500000	70.418	-24.7159
185.000000	70.328	-26.0623
187.500000	70.237	-27.4432
190.000000	70.144	-28.8083
192.500000	70.053	-30.1543
195.000000	69.971	-31.5067
197.500000	69.903	-32.8778
200.000000	69.850	-34.2415
203.000000	69.805	-35.8205
206.000000	69.771	-37.3434
209.000000	69.746	-38.8598
212.000000	69.729	-40.4039
214.000000	69.723	-41.4413
218.000000	69.714	-43.4932
220.000000	69.708	-44.5220
224.000000	69.686	-46.6511
227.000000	69.664	-48.3286
230.000000	69.640	-50.0482
233.000000	69.616	-51.7468
236.000000	69.592	-53.4025
240.000000	69.564	-55.5815
243.000000	69.543	-57.2120
247.000000	69.510	-59.4061
250.000000	69.485	-61.0854
254.000000	69.458	-63.3326
258.000000	69.441	-65.5342
262.000000	69.428	-67.6804
265.000000	69.422	-69.2719
269.000000	69.417	-71.4124
272.000000	69.416	-73.0387
276.000000	69.416	-75.2181
280.000000	69.418	-77.4182
285.000000	69.419	-80.2086
290.000000	69.420	-83.0360
295.000000	69.422	-85.8850
300.000000	69.423	-88.7091
304.000000	69.421	-90.9430
307.000000	69.419	-92.6221
311.000000	69.412	-94.8754
315.000000	69.403	-97.1266
320.000000	69.393	-99.9010
325.000000	69.390	-102.6606
330.000000	69.394	-105.4448
335.000000	69.406	-108.2585
340.000000	69.420	-111.0872
345.000000	69.431	-113.8989
350.000000	69.436	-116.6716
355.000000	69.434	-119.4374
360.000000	69.429	-122.2198
365.000000	69.424	-125.0121
370.000000	69.419	-127.7980
375.000000	69.413	-130.5627
382.000000	69.399	-134.4017
387.000000	69.388	-137.1296
395.000000	69.370	-141.4716
400.000000	69.358	-144.2040
406.000000	69.350	-147.4817
412.000000	69.344	-150.7028
418.000000	69.337	-153.8631
425.000000	69.329	-157.5135
431.000000	69.323	-160.6718
437.000000	69.314	-163.8439
444.000000	69.293	-167.4912
450.000000	69.269	-170.5634
455.000000	69.249	-173.1017
462.000000	69.233	-176.6525
468.000000	69.234	-179.7106
475.000000	69.243	176.7372
482.000000	69.249	173.2410
487.000000	69.248	170.7675
494.000000	69.243	167.3212
500.000000	69.236	164.3600
508.000000	69.226	160.3546
515.000000	69.217	156.8135
522.000000	69.205	153.2972
530.000000	69.189	149.3489
538.000000	69.171	145.4606
545.000000	69.154	142.0862
552.000000	69.137	138.7444
560.000000	69.116	134.9353
570.000000	69.087	130.1431
580.000000	69.055	125.4298
590.000000	69.020	120.8542
600.000000	68.987	116.3237
608.000000	68.967	112.6959
615.000000	68.955	109.5232
622.000000	68.943	106.3571
630.000000	68.922	102.7706
640.000000	68.886	98.3492
650.000000	68.851	93.9703
660.000000	68.821	89.6346
670.000000	68.791	85.3156
680.000000	68.761	81.0116
690.000000	68.733	76.7954
700.000000	68.712	72.6730
710.000000	68.699	68.5899
720.000000	68.685	64.5415
730.000000	68.667	60.5480
740.000000	68.640	56.5848
750.000000	68.610	52.6360
762.000000	68.584	47.9246
775.000000	68.571	42.8762
788.000000	68.560	37.9139
800.000000	68.553	33.4358
812.000000	68.549	29.0438
825.000000	68.544	24.3148
838.000000	68.542	19.5653
850.000000	68.545	15.1855
862.000000	68.557	10.8336
875.000000	68.582	6.1630
885.000000	68.604	2.6049
900.000000	68.634	-2.6808
912.000000	68.654	-6.8739
925.000000	68.677	-11.4047
938.000000	68.703	-15.9218
950.000000	68.727	-20.0516
962.000000	68.754	-24.1621
975.000000	68.791	-28.6152
988.000000	68.839	-33.0553
1000.000000	68.890	-37.1412
1015.000000	68.957	-42.2458
1030.000000	69.020	-47.3558
1044.000000	69.073	-52.1281
1060.000000	69.128	-57.5880
1075.000000	69.176	-62.6843
1090.000000	69.223	-67.6980
1106.000000	69.273	-72.9558
1120.000000	69.317	-77.5319
1138.000000	69.375	-83.4232
1150.000000	69.415	-87.3438
1172.000000	69.494	-94.5205
1180.000000	69.524	-97.1299
1206.000000	69.631	-105.5784
1220.000000	69.694	-110.0683
1241.000000	69.793	-116.7063
1250.000000	69.836	-119.5228
1265.000000	69.910	-124.1814
1280.000000	69.985	-128.7875
1315.000000	70.136	-139.2886
1320.000000	70.151	-140.7644
1340.000000	70.185	-146.6221
1360.000000	70.172	-152.3907
1380.000000	70.128	-158.0527
1400.000000	70.073	-163.5989
1430.000000	70.013	-171.7013
1450.000000	70.007	-177.0002
1475.000000	70.039	176.4670
1500.000000	70.109	170.0555
1525.000000	70.209	163.7445
1550.000000	70.338	157.5106
1575.000000	70.486	151.3624
1600.000000	70.644	145.2589
1625.000000	70.810	139.1687
1650.000000	70.979	133.0851
1675.000000	71.151	127.0299
1700.000000	71.323	121.0122
1725.000000	71.488	115.0071
1750.000000	71.650	109.0414
1775.000000	71.814	103.1296
1800.000000	71.981	97.2828
1825.000000	72.148	91.5073
1850.000000	72.316	85.8066
1875.000000	72.487	80.1829
1900.000000	72.660	74.6238
1925.000000	72.837	69.1204
1950.000000	73.018	63.6809
1975.000000	73.206	58.3032
2000.000000	73.404	52.9548
2030.000000	73.651	46.5337
2060.000000	73.913	40.1136
2090.000000	74.184	33.7272
2120.000000	74.458	27.3872
2140.000000	74.643	23.1702
2180.000000	75.026	14.7059
2200.000000	75.223	10.4493
2240.000000	75.628	1.8684
2270.000000	75.936	-4.6073
2300.000000	76.242	-11.0916
2330.000000	76.543	-17.5836
2360.000000	76.839	-24.0687
2400.000000	77.232	-32.7618
2430.000000	77.527	-39.3699
2470.000000	77.910	-48.3054
2500.000000	78.180	-55.0739
2540.000000	78.510	-64.1385
2580.000000	78.806	-73.2195
2620.000000	79.070	-82.2871
2650.000000	79.247	-89.0510
2690.000000	79.454	-97.9932
2720.000000	79.585	-104.6456
2760.000000	79.731	-113.4629
2800.000000	79.848	-122.1959
2850.000000	79.963	-132.8884
2900.000000	80.039	-143.2657
2950.000000	80.072	-153.3369
3000.000000	80.061	-163.1316
3040.000000	80.025	-170.7526
3070.000000	79.986	-176.3215
3110.000000	79.925	176.4657
3150.000000	79.856	169.4894
3200.000000	79.759	161.0775
3250.000000	79.649	153.0060
3300.000000	79.532	145.2804
3350.000000	79.407	137.8844
3400.000000	79.276	130.7848
3450.000000	79.142	123.9723
3500.000000	79.006	117.4509
3550.000000	78.874	111.2084
3600.000000	78.750	105.2212
3650.000000	78.639	99.4758
3700.000000	78.548	93.9614
3750.000000	78.478	88.6548
3820.000000	78.410	81.5542
3870.000000	78.381	76.7244
3950.000000	78.362	69.3820
4000.000000	78.363	64.9814
4060.000000	78.368	59.8413
4120.000000	78.374	54.8423
4180.000000	78.380	50.0038
4250.000000	78.384	44.5591
4310.000000	78.386	40.0212
4370.000000	78.395	35.5698
4440.000000	78.426	30.4952
4500.000000	78.470	26.2677
4550.000000	78.518	22.8237
4620.000000	78.598	18.0839
4680.000000	78.670	14.0818
4750.000000	78.749	9.4976
4820.000000	78.816	5.0184
4870.000000	78.854	1.8757
4940.000000	78.887	-2.4796
5000.000000	78.895	-6.1873
5080.000000	78.864	-11.0559
5150.000000	78.787	-15.1736
5220.000000	78.657	-19.0923
5300.000000	78.438	-23.2156
5380.000000	78.152	-26.8059
5450.000000	77.860	-29.4299
5520.000000	77.546	-31.5581
5600.000000	77.177	-33.3750
5700.000000	76.724	-34.7115
5800.000000	76.324	-35.0586
5900.000000	76.010	-34.5867
6000.000000	75.780	-33.5161
6080.000000	75.644	-32.3208
6150.000000	75.550	-31.0714
6220.000000	75.477	-29.6656
6300.000000	75.414	-27.8967
6400.000000	75.367	-25.4801
6500.000000	75.360	-22.8751
6600.000000	75.391	-20.1208
6700.000000	75.461	-17.2424
6800.000000	75.571	-14.2568
6900.000000	75.722	-11.2070
7000.000000	75.911	-8.1759
7100.000000	76.140	-5.2954
7200.000000	76.409	-2.7366
7300.000000	76.699	-0.6792
7400.000000	76.971	0.7117
7500.000000	77.174	1.3457
7620.000000	77.229	1.2822
7750.000000	76.926	1.0320
7880.000000	76.174	2.0941
8000.000000	75.145	5.5050
8120.000000	73.943	11.7659
8250.000000	72.626	21.3804
8380.000000	71.426	32.9615
8500.000000	70.462	44.6361
8620.000000	69.623	56.8889
8750.000000	68.817	70.7418
8850.000000	68.244	81.8777
9000.000000	67.438	99.5212
9120.000000	66.826	114.5679
9250.000000	66.197	132.0547
9380.000000	65.643	151.2892
9500.000000	65.277	171.2074
9620.000000	65.163	-166.5457
9750.000000	65.420	-140.9109
9880.000000	66.056	-116.4797
10000.000000	66.844	-96.9706
10150.000000	67.856	-76.4772
10300.000000	68.733	-58.3175
10440.000000	69.395	-41.8014
10600.000000	70.014	-22.4606
10750.000000	70.514	-3.7295
10900.000000	70.966	15.3884
11060.000000	71.396	36.0532
11200.000000	71.723	54.4507
11380.000000	72.077	78.9446
11500.000000	72.295	96.0585
11720.000000	72.748	129.3839
11800.000000	72.954	142.1849
12060.000000	73.917	-172.6837
12200.000000	74.728	-145.4896
12410.000000	76.420	-103.6949
12500.000000	77.279	-87.4734
12650.000000	78.765	-64.4051
12800.000000	80.178	-46.2754
13150.000000	82.359	-19.0734
13200.000000	82.475	-16.3335
13400.000000	82.349	-6.0377
13600.000000	81.339	6.4328
13800.000000	79.709	24.6561
14000.000000	77.808	50.9743
14300.000000	75.115	106.1806
14500.000000	73.686	149.9318
14750.000000	72.384	-152.6609
15000.000000	71.562	-93.8483
15250.000000	71.162	-32.4158
15500.000000	71.180	33.5299
15750.000000	71.642	100.5363
16000.000000	72.463	158.6937
16250.000000	73.398	-153.2269
16500.000000	74.209	-109.5479
16750.000000	74.827	-64.2620
17000.000000	75.317	-14.2152
17250.000000	75.724	37.9576
17500.000000	76.003	86.9038
17750.000000	76.076	131.2971
18000.000000	75.917	174.0550
18250.000000	75.617	-138.0994
18500.000000	75.357	-73.6572
18750.000000	75.220	-2.8663
19000.000000	75.085	51.0244
19250.000000	74.778	98.2650
19500.000000	74.246	150.5223
19750.000000	73.614	-157.1351
20000.000000	73.180	-128.9264
