* Measurement data measured by REW V5.31.3
* Source: Microphone (6- USB Sound Device        ), MICROPHONE (Master Volume), L, volume: 0.700
* Format: 256k Log Swept Sine, 1 sweep at -12.0 dBFS with no timing reference
* Dated: 10-Mar-2025 15:44:08
* REW Settings:
*  C-weighting compensation: Off
*  Target level: 75.0 dB
* Note: 
* Measurement: OPBP 3 Dyn F R
* Smoothing: 1/12 octave
* Frequency Step: 1/48 octave
* Start Frequency: 20.300 Hz
*
* Freq(Hz)	SPL(dB)	Phase(degrees)
20.299999	88.954	-87.9368
20.600000	89.035	-88.8769
20.900000	89.129	-90.0523
21.200001	89.219	-91.2857
21.400000	89.275	-92.0959
21.799999	89.379	-93.6369
22.000000	89.432	-94.3636
22.400000	89.545	-95.7526
22.700001	89.638	-96.7698
23.000000	89.734	-97.7915
23.299999	89.829	-98.8269
23.600000	89.920	-99.8711
24.000000	90.030	-101.2527
24.299999	90.104	-102.2641
24.700001	90.197	-103.5699
25.000000	90.264	-104.5217
25.400000	90.351	-105.7663
25.799999	90.436	-106.9907
26.200001	90.516	-108.1928
26.500000	90.573	-109.0758
26.900000	90.646	-110.2268
27.200001	90.699	-111.0731
27.600000	90.766	-112.1846
28.000000	90.829	-113.2803
28.500000	90.903	-114.6259
29.000000	90.974	-115.9418
29.500000	91.043	-117.2320
30.000000	91.112	-118.4997
30.400000	91.165	-119.4913
30.700001	91.204	-120.2156
31.100000	91.253	-121.1501
31.500000	91.300	-122.0504
32.000000	91.359	-123.1427
32.500000	91.415	-124.2198
33.000000	91.466	-125.2949
33.500000	91.512	-126.3679
34.000000	91.555	-127.4334
34.500000	91.595	-128.4842
35.000000	91.633	-129.5090
35.500000	91.668	-130.4943
36.000000	91.702	-131.4367
36.500000	91.737	-132.3519
37.000000	91.772	-133.2681
37.500000	91.805	-134.2050
38.200001	91.842	-135.5355
38.700001	91.863	-136.4577
39.500000	91.899	-137.8206
40.000000	91.927	-138.6086
40.599998	91.965	-139.5264
41.200001	91.998	-140.4375
41.799999	92.022	-141.3374
42.500000	92.041	-142.3572
43.099998	92.055	-143.2163
43.700001	92.071	-144.0838
44.400002	92.095	-145.1098
45.000000	92.115	-145.9781
45.500000	92.130	-146.6780
46.200001	92.146	-147.6172
46.799999	92.156	-148.3981
47.500000	92.166	-149.3069
48.200001	92.177	-150.2198
48.700001	92.186	-150.8587
49.400002	92.202	-151.7088
50.000000	92.214	-152.3965
50.799999	92.222	-153.2851
51.500000	92.219	-154.0498
52.200001	92.214	-154.8015
53.000000	92.210	-155.6573
53.799999	92.209	-156.5258
54.500000	92.206	-157.2891
55.200001	92.202	-158.0439
56.000000	92.198	-158.8923
57.000000	92.190	-159.9182
58.000000	92.177	-160.8713
59.000000	92.166	-161.7553
60.000000	92.161	-162.6099
60.799999	92.160	-163.2884
61.500000	92.159	-163.8875
62.200001	92.157	-164.4974
63.000000	92.150	-165.2002
64.000000	92.137	-166.0524
65.000000	92.122	-166.8528
66.000000	92.105	-167.6049
67.000000	92.086	-168.3095
68.000000	92.068	-168.9968
69.000000	92.050	-169.7163
70.000000	92.031	-170.4682
71.000000	92.015	-171.2143
72.000000	92.002	-171.9306
73.000000	91.988	-172.6273
74.000000	91.967	-173.3162
75.000000	91.943	-173.9843
76.199997	91.914	-174.7546
77.500000	91.883	-175.5800
78.800003	91.849	-176.3882
80.000000	91.821	-177.0917
81.199997	91.796	-177.7462
82.500000	91.773	-178.4254
83.800003	91.746	-179.1197
85.000000	91.719	-179.7641
86.199997	91.689	179.6168
87.500000	91.653	178.9630
88.500000	91.623	178.4601
90.000000	91.578	177.7131
91.199997	91.547	177.1188
92.500000	91.514	176.4618
93.800003	91.477	175.7917
95.000000	91.441	175.1852
96.199997	91.403	174.6058
97.500000	91.361	174.0169
98.800003	91.316	173.4823
100.000000	91.277	173.0385
101.500000	91.234	172.5060
103.000000	91.199	171.9431
104.400002	91.171	171.3875
106.000000	91.145	170.7561
107.500000	91.124	170.1793
109.000000	91.102	169.5979
110.599998	91.077	168.9524
112.000000	91.053	168.3577
113.800003	91.015	167.5640
115.000000	90.985	167.0315
117.199997	90.922	166.0769
118.000000	90.897	165.7399
120.599998	90.818	164.6714
122.000000	90.776	164.1175
124.099998	90.710	163.2985
125.000000	90.679	162.9418
126.500000	90.625	162.3384
128.000000	90.570	161.7334
131.500000	90.447	160.3413
132.000000	90.429	160.1435
134.000000	90.353	159.3514
136.000000	90.269	158.5605
138.000000	90.180	157.7865
140.000000	90.093	157.0289
143.000000	89.968	155.9068
145.000000	89.880	155.1659
147.500000	89.753	154.2393
150.000000	89.612	153.3468
152.500000	89.470	152.4692
155.000000	89.323	151.6270
157.500000	89.166	150.8167
160.000000	88.995	150.0148
162.500000	88.811	149.2694
165.000000	88.625	148.6604
167.500000	88.446	148.1617
170.000000	88.270	147.7414
172.500000	88.083	147.4261
175.000000	87.884	147.2396
177.500000	87.684	147.1639
180.000000	87.491	147.1743
182.500000	87.308	147.2817
185.000000	87.133	147.4672
187.500000	86.963	147.6504
190.000000	86.792	147.7491
192.500000	86.624	147.7608
195.000000	86.462	147.7612
197.500000	86.310	147.8207
200.000000	86.167	147.9644
203.000000	86.013	148.2471
206.000000	85.886	148.6262
209.000000	85.790	149.0432
212.000000	85.713	149.4505
214.000000	85.663	149.7173
218.000000	85.544	150.2456
220.000000	85.474	150.4988
224.000000	85.330	150.9624
227.000000	85.227	151.2946
230.000000	85.130	151.6313
233.000000	85.034	151.9641
236.000000	84.941	152.3014
240.000000	84.823	152.7582
243.000000	84.741	153.0927
247.000000	84.636	153.5251
250.000000	84.560	153.8424
254.000000	84.466	154.2514
258.000000	84.378	154.6562
262.000000	84.292	155.0606
265.000000	84.231	155.3672
269.000000	84.152	155.7818
272.000000	84.092	156.0828
276.000000	84.012	156.4636
280.000000	83.935	156.8269
285.000000	83.843	157.2702
290.000000	83.757	157.6975
295.000000	83.673	158.0999
300.000000	83.587	158.4902
304.000000	83.514	158.8089
307.000000	83.458	159.0652
311.000000	83.384	159.4258
315.000000	83.312	159.7830
320.000000	83.226	160.2122
325.000000	83.146	160.6297
330.000000	83.068	161.0202
335.000000	82.991	161.3937
340.000000	82.917	161.8079
345.000000	82.847	162.2709
350.000000	82.781	162.7126
355.000000	82.712	163.1025
360.000000	82.644	163.4818
365.000000	82.577	163.8670
370.000000	82.510	164.2620
375.000000	82.441	164.6710
382.000000	82.348	165.2621
387.000000	82.287	165.6909
395.000000	82.187	166.3997
400.000000	82.116	166.8634
406.000000	82.029	167.3972
412.000000	81.952	167.8977
418.000000	81.885	168.4035
425.000000	81.815	169.0131
431.000000	81.755	169.5434
437.000000	81.689	170.0578
444.000000	81.606	170.6272
450.000000	81.537	171.1221
455.000000	81.482	171.5665
462.000000	81.410	172.2267
468.000000	81.350	172.8143
475.000000	81.283	173.5262
482.000000	81.223	174.2596
487.000000	81.180	174.7825
494.000000	81.119	175.4886
500.000000	81.066	176.0697
508.000000	80.999	176.8220
515.000000	80.944	177.4664
522.000000	80.891	178.1002
530.000000	80.832	178.8026
538.000000	80.773	179.5063
545.000000	80.724	-179.8498
552.000000	80.678	-179.1711
560.000000	80.632	-178.3697
570.000000	80.579	-177.3818
580.000000	80.527	-176.4385
590.000000	80.474	-175.4796
600.000000	80.417	-174.4814
608.000000	80.370	-173.6832
615.000000	80.334	-172.9960
622.000000	80.302	-172.3144
630.000000	80.271	-171.5214
640.000000	80.234	-170.4990
650.000000	80.205	-169.4872
660.000000	80.184	-168.5044
670.000000	80.168	-167.5344
680.000000	80.153	-166.5707
690.000000	80.135	-165.6076
700.000000	80.113	-164.6512
710.000000	80.085	-163.6932
720.000000	80.054	-162.7277
730.000000	80.023	-161.7692
740.000000	79.998	-160.8020
750.000000	79.987	-159.8102
762.000000	79.991	-158.6121
775.000000	80.003	-157.2996
788.000000	80.010	-155.9555
800.000000	80.010	-154.6998
812.000000	80.016	-153.4478
825.000000	80.034	-152.1308
838.000000	80.064	-150.8643
850.000000	80.097	-149.7436
862.000000	80.135	-148.6494
875.000000	80.180	-147.4670
885.000000	80.217	-146.5544
900.000000	80.275	-145.1916
912.000000	80.323	-144.1177
925.000000	80.378	-142.9756
938.000000	80.434	-141.8384
950.000000	80.489	-140.7914
962.000000	80.551	-139.7735
975.000000	80.630	-138.7234
988.000000	80.719	-137.7162
1000.000000	80.805	-136.8091
1015.000000	80.913	-135.7320
1030.000000	81.020	-134.7418
1044.000000	81.118	-133.8719
1060.000000	81.229	-132.9427
1075.000000	81.331	-132.1454
1090.000000	81.428	-131.4010
1106.000000	81.531	-130.6284
1120.000000	81.626	-129.9536
1138.000000	81.755	-129.0834
1150.000000	81.842	-128.5231
1172.000000	82.001	-127.5601
1180.000000	82.061	-127.2207
1206.000000	82.256	-126.1717
1220.000000	82.364	-125.6566
1241.000000	82.541	-124.9184
1250.000000	82.622	-124.6021
1265.000000	82.761	-124.0748
1280.000000	82.903	-123.5538
1315.000000	83.210	-122.3777
1320.000000	83.247	-122.2152
1340.000000	83.365	-121.5778
1360.000000	83.435	-120.9413
1380.000000	83.471	-120.2989
1400.000000	83.496	-119.6641
1430.000000	83.567	-118.7265
1450.000000	83.655	-118.1133
1475.000000	83.805	-117.3679
1500.000000	83.987	-116.6805
1525.000000	84.192	-116.0896
1550.000000	84.399	-115.5848
1575.000000	84.596	-115.1431
1600.000000	84.783	-114.7613
1625.000000	84.960	-114.3716
1650.000000	85.137	-113.9854
1675.000000	85.319	-113.6400
1700.000000	85.504	-113.3061
1725.000000	85.694	-112.9958
1750.000000	85.890	-112.7496
1775.000000	86.088	-112.5937
1800.000000	86.285	-112.5490
1825.000000	86.478	-112.6143
1850.000000	86.665	-112.7515
1875.000000	86.843	-112.9349
1900.000000	87.008	-113.1731
1925.000000	87.160	-113.4664
1950.000000	87.298	-113.7833
1975.000000	87.429	-114.0945
2000.000000	87.560	-114.4150
2030.000000	87.715	-114.8436
2060.000000	87.857	-115.2850
2090.000000	87.985	-115.7327
2120.000000	88.105	-116.1991
2140.000000	88.182	-116.5162
2180.000000	88.329	-117.1698
2200.000000	88.398	-117.5050
2240.000000	88.531	-118.1855
2270.000000	88.628	-118.6933
2300.000000	88.720	-119.1994
2330.000000	88.806	-119.7053
2360.000000	88.885	-120.1990
2400.000000	88.981	-120.8548
2430.000000	89.046	-121.3606
2470.000000	89.124	-122.0480
2500.000000	89.176	-122.5596
2540.000000	89.240	-123.2045
2580.000000	89.304	-123.8075
2620.000000	89.366	-124.4075
2650.000000	89.408	-124.8715
2690.000000	89.458	-125.5253
2720.000000	89.491	-126.0257
2760.000000	89.527	-126.6630
2800.000000	89.553	-127.2522
2850.000000	89.577	-127.9315
2900.000000	89.605	-128.5827
2950.000000	89.635	-129.2178
3000.000000	89.656	-129.8109
3040.000000	89.667	-130.2505
3070.000000	89.675	-130.5692
3110.000000	89.689	-130.9823
3150.000000	89.708	-131.3800
3200.000000	89.744	-131.8541
3250.000000	89.784	-132.3289
3300.000000	89.821	-132.8345
3350.000000	89.855	-133.3641
3400.000000	89.885	-133.9164
3450.000000	89.909	-134.4957
3500.000000	89.925	-135.1030
3550.000000	89.933	-135.7472
3600.000000	89.939	-136.4312
3650.000000	89.946	-137.1559
3700.000000	89.955	-137.9283
3750.000000	89.965	-138.7198
3820.000000	89.979	-139.7907
3870.000000	89.987	-140.5565
3950.000000	89.995	-141.7769
4000.000000	89.989	-142.5343
4060.000000	89.967	-143.4394
4120.000000	89.930	-144.3190
4180.000000	89.874	-145.1817
4250.000000	89.782	-146.2082
4310.000000	89.688	-147.1071
4370.000000	89.590	-148.0104
4440.000000	89.480	-149.0769
4500.000000	89.393	-149.9952
4550.000000	89.325	-150.7616
4620.000000	89.234	-151.8428
4680.000000	89.155	-152.7763
4750.000000	89.052	-153.8555
4820.000000	88.930	-154.9106
4870.000000	88.832	-155.6516
4940.000000	88.680	-156.6684
5000.000000	88.539	-157.5143
5080.000000	88.336	-158.6055
5150.000000	88.141	-159.5340
5220.000000	87.926	-160.4379
5300.000000	87.650	-161.4053
5380.000000	87.344	-162.2369
5450.000000	87.055	-162.8060
5520.000000	86.750	-163.2047
5600.000000	86.390	-163.4135
5700.000000	85.941	-163.2368
5800.000000	85.519	-162.5780
5900.000000	85.142	-161.5081
6000.000000	84.823	-160.1005
6080.000000	84.609	-158.7881
6150.000000	84.450	-157.5393
6220.000000	84.315	-156.2185
6300.000000	84.190	-154.6503
6400.000000	84.087	-152.6549
6500.000000	84.048	-150.6718
6600.000000	84.076	-148.7459
6700.000000	84.177	-146.9320
6800.000000	84.356	-145.2776
6900.000000	84.622	-143.8300
7000.000000	84.979	-142.6895
7100.000000	85.433	-142.0040
7200.000000	85.991	-141.9588
7300.000000	86.651	-142.7710
7400.000000	87.394	-144.6852
7500.000000	88.178	-147.9499
7620.000000	89.067	-153.8809
7750.000000	89.774	-162.6941
7880.000000	90.001	-173.2638
8000.000000	89.684	176.5795
8120.000000	88.880	167.2374
8250.000000	87.582	159.0291
8380.000000	86.022	153.2718
8500.000000	84.509	150.1136
8620.000000	83.039	148.7429
8750.000000	81.566	148.8363
8850.000000	80.538	149.7518
9000.000000	79.169	152.1017
9120.000000	78.208	154.5645
9250.000000	77.278	157.6231
9380.000000	76.444	160.9603
9500.000000	75.746	164.2296
9620.000000	75.114	167.6952
9750.000000	74.502	171.7180
9880.000000	73.967	176.0451
10000.000000	73.549	-179.7286
10150.000000	73.140	-174.2404
10300.000000	72.850	-168.5962
10440.000000	72.675	-163.1955
10600.000000	72.590	-156.8228
10750.000000	72.643	-150.5663
10900.000000	72.869	-143.9781
11060.000000	73.363	-136.7111
11200.000000	74.057	-130.5083
11380.000000	75.325	-123.6883
11500.000000	76.361	-120.5347
11720.000000	78.407	-118.7951
11800.000000	79.114	-119.4703
12060.000000	81.012	-124.7194
12200.000000	81.804	-128.0968
12410.000000	82.969	-132.4637
12500.000000	83.544	-134.1634
12650.000000	84.637	-137.3922
12800.000000	85.834	-141.9203
13150.000000	88.231	-160.0147
13200.000000	88.462	-163.3665
13400.000000	89.025	-177.8834
13600.000000	89.062	167.0351
13800.000000	88.750	152.5255
14000.000000	88.278	138.9006
14300.000000	87.445	119.5177
14500.000000	86.754	106.9960
14750.000000	85.643	92.1719
15000.000000	84.287	78.8962
15250.000000	82.823	67.1354
15500.000000	81.368	55.9124
15750.000000	79.915	43.9615
16000.000000	78.316	30.8704
16250.000000	76.371	17.6152
16500.000000	73.975	6.0029
16750.000000	71.186	-2.3419
17000.000000	68.168	-6.6049
17250.000000	65.129	-6.8503
17500.000000	62.266	-3.7276
17750.000000	59.722	1.8134
18000.000000	57.571	8.7507
18250.000000	55.817	16.3375
18500.000000	54.401	24.1770
18750.000000	53.234	32.0861
19000.000000	52.234	40.0563
19250.000000	51.327	48.5128
19500.000000	50.461	58.0947
19750.000000	49.682	68.3372
20000.000000	49.200	75.4987
