* Measurement data measured by REW V5.31.3
* Source: Microphone (6- USB Sound Device        ), MICROPHONE (Master Volume), L, volume: 0.700
* Format: 256k Log Swept Sine, 1 sweep at -12.0 dBFS with no timing reference
* Dated: 10-Mar-2025 15:43:44
* REW Settings:
*  C-weighting compensation: Off
*  Target level: 75.0 dB
* Note: 
* Measurement: OPBP 3 Dyn F L
* Smoothing: 1/12 octave
* Frequency Step: 1/48 octave
* Start Frequency: 20.300 Hz
*
* Freq(Hz)	SPL(dB)	Phase(degrees)
20.299999	88.903	-101.2026
20.600000	88.978	-102.1766
20.900000	89.071	-103.3911
21.200001	89.166	-104.6886
21.400000	89.229	-105.5704
21.799999	89.349	-107.3490
22.000000	89.408	-108.2388
22.400000	89.521	-110.0014
22.700001	89.605	-111.2948
23.000000	89.689	-112.5559
23.299999	89.774	-113.7853
23.600000	89.859	-114.9893
24.000000	89.971	-116.5715
24.299999	90.051	-117.7492
24.700001	90.149	-119.3089
25.000000	90.217	-120.4646
25.400000	90.301	-121.9747
25.799999	90.380	-123.4428
26.200001	90.459	-124.8740
26.500000	90.519	-125.9318
26.900000	90.598	-127.3337
27.200001	90.655	-128.3834
27.600000	90.728	-129.7799
28.000000	90.794	-131.1639
28.500000	90.867	-132.8551
29.000000	90.931	-134.4833
29.500000	90.995	-136.0469
30.000000	91.062	-137.5668
30.400000	91.117	-138.7703
30.700001	91.159	-139.6717
31.100000	91.213	-140.8712
31.500000	91.263	-142.0612
32.000000	91.321	-143.5234
32.500000	91.376	-144.9550
33.000000	91.427	-146.3638
33.500000	91.472	-147.7538
34.000000	91.514	-149.1193
34.500000	91.552	-150.4546
35.000000	91.591	-151.7666
35.500000	91.629	-153.0703
36.000000	91.665	-154.3715
36.500000	91.697	-155.6583
37.000000	91.724	-156.9111
37.500000	91.751	-158.1213
38.200001	91.791	-159.7670
38.700001	91.823	-160.9362
39.500000	91.871	-162.8210
40.000000	91.896	-163.9948
40.599998	91.918	-165.3750
41.200001	91.938	-166.7123
41.799999	91.959	-168.0106
42.500000	91.987	-169.4955
43.099998	92.012	-170.7543
43.700001	92.033	-171.9997
44.400002	92.052	-173.4288
45.000000	92.066	-174.6329
45.500000	92.077	-175.6250
46.200001	92.093	-176.9990
46.799999	92.107	-178.1567
47.500000	92.120	-179.4677
48.200001	92.131	179.2692
48.700001	92.141	178.3798
49.400002	92.156	177.1144
50.000000	92.163	175.9969
50.799999	92.156	174.5010
51.500000	92.142	173.2350
52.200001	92.134	172.0103
53.000000	92.134	170.6270
53.799999	92.141	169.2535
54.500000	92.146	168.0749
55.200001	92.149	166.9220
56.000000	92.146	165.6210
57.000000	92.140	163.9983
58.000000	92.133	162.3936
59.000000	92.126	160.8341
60.000000	92.116	159.3096
60.799999	92.105	158.1002
61.500000	92.094	157.0484
62.200001	92.085	156.0032
63.000000	92.075	154.8148
64.000000	92.063	153.3508
65.000000	92.050	151.9326
66.000000	92.043	150.5448
67.000000	92.038	149.1485
68.000000	92.027	147.7313
69.000000	92.008	146.3208
70.000000	91.987	144.9437
71.000000	91.968	143.5974
72.000000	91.950	142.2749
73.000000	91.931	140.9670
74.000000	91.910	139.6631
75.000000	91.889	138.3667
76.199997	91.867	136.8380
77.500000	91.844	135.2222
78.800003	91.817	133.6224
80.000000	91.785	132.1414
81.199997	91.751	130.6711
82.500000	91.722	129.0966
83.800003	91.697	127.5327
85.000000	91.670	126.0970
86.199997	91.639	124.6642
87.500000	91.607	123.1216
88.500000	91.579	121.9574
90.000000	91.531	120.2662
91.199997	91.489	118.9550
92.500000	91.442	117.5441
93.800003	91.398	116.1171
95.000000	91.361	114.7953
96.199997	91.328	113.4911
97.500000	91.298	112.1006
98.800003	91.270	110.7312
100.000000	91.242	109.4891
101.500000	91.202	107.9614
103.000000	91.160	106.4449
104.400002	91.124	105.0205
106.000000	91.094	103.3583
107.500000	91.074	101.7783
109.000000	91.052	100.1968
110.599998	91.017	98.5034
112.000000	90.979	97.0190
113.800003	90.931	95.1276
115.000000	90.903	93.8766
117.199997	90.853	91.5803
118.000000	90.833	90.7370
120.599998	90.750	87.9324
122.000000	90.700	86.4011
124.099998	90.627	84.1509
125.000000	90.597	83.2061
126.500000	90.548	81.6447
128.000000	90.501	80.0927
131.500000	90.382	76.5249
132.000000	90.364	76.0232
134.000000	90.287	74.0179
136.000000	90.206	72.0032
138.000000	90.120	70.0154
140.000000	90.033	68.0699
143.000000	89.903	65.1322
145.000000	89.816	63.1238
147.500000	89.694	60.5807
150.000000	89.559	58.0541
152.500000	89.415	55.5291
155.000000	89.262	53.0059
157.500000	89.101	50.5842
160.000000	88.933	48.2598
162.500000	88.762	46.0050
165.000000	88.593	43.8351
167.500000	88.419	41.7220
170.000000	88.239	39.6599
172.500000	88.051	37.6909
175.000000	87.854	35.8318
177.500000	87.654	34.1114
180.000000	87.460	32.5546
182.500000	87.275	31.1364
185.000000	87.096	29.7629
187.500000	86.923	28.3412
190.000000	86.754	26.8536
192.500000	86.590	25.3252
195.000000	86.430	23.7847
197.500000	86.276	22.2599
200.000000	86.131	20.7849
203.000000	85.979	19.1089
206.000000	85.856	17.5256
209.000000	85.753	15.9998
212.000000	85.663	14.5099
214.000000	85.605	13.5253
218.000000	85.484	11.5142
220.000000	85.420	10.4700
224.000000	85.284	8.3350
227.000000	85.180	6.7434
230.000000	85.078	5.1847
233.000000	84.980	3.6519
236.000000	84.886	2.1219
240.000000	84.771	0.0494
243.000000	84.691	-1.5466
247.000000	84.585	-3.7179
250.000000	84.509	-5.3472
254.000000	84.414	-7.4922
258.000000	84.326	-9.6083
262.000000	84.242	-11.7091
265.000000	84.178	-13.2787
269.000000	84.094	-15.3893
272.000000	84.033	-17.0064
276.000000	83.957	-19.2074
280.000000	83.883	-21.4331
285.000000	83.794	-24.2201
290.000000	83.707	-27.0011
295.000000	83.622	-29.7677
300.000000	83.535	-32.5349
304.000000	83.465	-34.7489
307.000000	83.413	-36.4041
311.000000	83.345	-38.6118
315.000000	83.276	-40.8202
320.000000	83.189	-43.5769
325.000000	83.103	-46.3331
330.000000	83.021	-49.0893
335.000000	82.945	-51.8680
340.000000	82.872	-54.6755
345.000000	82.802	-57.4843
350.000000	82.733	-60.2661
355.000000	82.661	-63.0308
360.000000	82.588	-65.7803
365.000000	82.518	-68.5131
370.000000	82.452	-71.2609
375.000000	82.388	-74.0506
382.000000	82.297	-77.9866
387.000000	82.234	-80.7874
395.000000	82.136	-85.2073
400.000000	82.072	-87.9459
406.000000	81.990	-91.2567
412.000000	81.908	-94.5726
418.000000	81.830	-97.8723
425.000000	81.743	-101.7319
431.000000	81.674	-105.0529
437.000000	81.607	-108.3531
444.000000	81.527	-112.1786
450.000000	81.461	-115.4559
455.000000	81.410	-118.1730
462.000000	81.345	-121.9476
468.000000	81.295	-125.1931
475.000000	81.237	-129.0237
482.000000	81.174	-132.8796
487.000000	81.128	-135.6266
494.000000	81.065	-139.4355
500.000000	81.017	-142.6671
508.000000	80.960	-146.9620
515.000000	80.911	-150.7471
522.000000	80.860	-154.5691
530.000000	80.802	-158.9583
538.000000	80.744	-163.3432
545.000000	80.695	-167.1495
552.000000	80.647	-170.9353
560.000000	80.594	-175.2717
570.000000	80.532	179.2911
580.000000	80.474	173.8736
590.000000	80.416	168.4786
600.000000	80.358	163.0771
608.000000	80.316	158.7569
615.000000	80.284	154.9771
622.000000	80.257	151.1839
630.000000	80.230	146.8235
640.000000	80.198	141.3649
650.000000	80.166	135.9379
660.000000	80.134	130.5328
670.000000	80.106	125.1354
680.000000	80.079	119.7251
690.000000	80.056	114.2858
700.000000	80.038	108.8680
710.000000	80.022	103.4910
720.000000	80.003	98.1225
730.000000	79.982	92.7264
740.000000	79.962	87.2980
750.000000	79.945	81.8665
762.000000	79.928	75.3915
775.000000	79.921	68.4021
788.000000	79.933	61.3852
800.000000	79.952	54.9203
812.000000	79.973	48.4769
825.000000	79.993	41.4805
838.000000	80.018	34.4371
850.000000	80.044	27.9081
862.000000	80.073	21.3618
875.000000	80.107	14.2572
885.000000	80.139	8.7845
900.000000	80.196	0.5612
912.000000	80.251	-6.0498
925.000000	80.318	-13.2612
938.000000	80.388	-20.5107
950.000000	80.450	-27.1931
962.000000	80.508	-33.8551
975.000000	80.574	-41.0942
988.000000	80.651	-48.4021
1000.000000	80.733	-55.2130
1015.000000	80.844	-63.7878
1030.000000	80.953	-72.4113
1044.000000	81.052	-80.5089
1060.000000	81.163	-89.8336
1075.000000	81.269	-98.6291
1090.000000	81.373	-107.4438
1106.000000	81.484	-116.8508
1120.000000	81.580	-125.1039
1138.000000	81.703	-135.7780
1150.000000	81.787	-142.9221
1172.000000	81.945	-156.0569
1180.000000	82.005	-160.8503
1206.000000	82.209	-176.4537
1220.000000	82.323	175.1564
1241.000000	82.500	162.5371
1250.000000	82.580	157.1030
1265.000000	82.717	148.0188
1280.000000	82.857	138.9152
1315.000000	83.161	117.6736
1320.000000	83.198	114.6422
1340.000000	83.318	102.5138
1360.000000	83.393	90.3704
1380.000000	83.433	78.2144
1400.000000	83.462	66.0542
1430.000000	83.539	47.8295
1450.000000	83.630	35.6766
1475.000000	83.783	20.4417
1500.000000	83.965	5.1251
1525.000000	84.162	-10.2672
1550.000000	84.359	-25.6982
1575.000000	84.547	-41.1606
1600.000000	84.725	-56.7098
1625.000000	84.902	-72.3572
1650.000000	85.082	-88.0181
1675.000000	85.265	-103.6653
1700.000000	85.450	-119.3323
1725.000000	85.643	-135.0455
1750.000000	85.845	-150.7867
1775.000000	86.049	-166.5631
1800.000000	86.249	177.5686
1825.000000	86.444	161.5803
1850.000000	86.631	145.5061
1875.000000	86.807	129.3792
1900.000000	86.969	113.2056
1925.000000	87.119	96.9995
1950.000000	87.255	80.7953
1975.000000	87.374	64.6525
2000.000000	87.472	48.7159
2030.000000	87.569	30.3754
2060.000000	87.682	13.6544
2090.000000	87.835	-1.0386
2120.000000	88.001	-14.1145
2140.000000	88.103	-22.3440
2180.000000	88.276	-38.3489
2200.000000	88.351	-46.2728
2240.000000	88.485	-62.0876
2270.000000	88.581	-73.8848
2300.000000	88.673	-85.5593
2330.000000	88.761	-97.1104
2360.000000	88.845	-108.5638
2400.000000	88.950	-123.7085
2430.000000	89.019	-134.9619
2470.000000	89.097	-149.8076
2500.000000	89.144	-160.8325
2540.000000	89.200	-175.3889
2580.000000	89.257	170.2235
2620.000000	89.317	155.9886
2650.000000	89.359	145.3929
2690.000000	89.408	131.3689
2720.000000	89.440	120.9457
2760.000000	89.474	107.2013
2800.000000	89.505	93.6400
2850.000000	89.542	76.9567
2900.000000	89.572	60.5586
2950.000000	89.595	44.3698
3000.000000	89.615	28.3529
3040.000000	89.635	15.7200
3070.000000	89.653	6.3547
3110.000000	89.680	-6.0006
3150.000000	89.706	-18.2153
3200.000000	89.735	-33.2948
3250.000000	89.762	-48.1945
3300.000000	89.791	-62.9370
3350.000000	89.819	-77.5391
3400.000000	89.845	-91.9949
3450.000000	89.867	-106.2920
3500.000000	89.884	-120.4312
3550.000000	89.896	-134.4219
3600.000000	89.904	-148.2749
3650.000000	89.910	-162.0029
3700.000000	89.917	-175.6147
3750.000000	89.925	170.9043
3820.000000	89.940	152.3198
3870.000000	89.954	139.2749
3950.000000	89.970	118.7603
4000.000000	89.967	106.1362
4060.000000	89.948	91.1755
4120.000000	89.908	76.4214
4180.000000	89.847	61.8774
4250.000000	89.754	45.1865
4310.000000	89.663	31.1001
4370.000000	89.568	17.2090
4440.000000	89.460	1.2485
4500.000000	89.375	-12.2310
4550.000000	89.308	-23.3286
4620.000000	89.218	-38.6538
4680.000000	89.136	-51.5830
4750.000000	89.031	-66.4102
4820.000000	88.908	-80.9580
4870.000000	88.807	-91.1841
4940.000000	88.651	-105.2976
5000.000000	88.507	-117.2222
5080.000000	88.305	-132.8479
5150.000000	88.115	-146.2388
5220.000000	87.908	-159.3506
5300.000000	87.641	-173.9709
5380.000000	87.335	171.8093
5450.000000	87.038	159.7190
5520.000000	86.723	147.9944
5600.000000	86.358	135.0881
5700.000000	85.911	119.7324
5800.000000	85.492	105.2205
5900.000000	85.122	91.4932
6000.000000	84.808	78.4834
6080.000000	84.597	68.5466
6150.000000	84.438	60.1548
6220.000000	84.301	52.0117
6300.000000	84.176	42.9812
6400.000000	84.072	32.0708
6500.000000	84.033	21.5337
6600.000000	84.060	11.3018
6700.000000	84.161	1.2952
6800.000000	84.342	-8.5298
6900.000000	84.608	-18.2222
7000.000000	84.964	-27.8896
7100.000000	85.422	-37.6594
7200.000000	85.983	-47.6753
7300.000000	86.643	-58.1326
7400.000000	87.383	-69.2715
7500.000000	88.163	-81.3081
7620.000000	89.051	-97.1201
7750.000000	89.762	-115.8755
7880.000000	89.996	-135.6755
8000.000000	89.683	-153.8701
8120.000000	88.883	-170.9507
8250.000000	87.587	172.7056
8380.000000	86.029	159.0566
8500.000000	84.516	148.8264
8620.000000	83.045	140.6274
8750.000000	81.573	133.6851
8850.000000	80.547	129.4792
9000.000000	79.179	124.6343
9120.000000	78.216	121.7764
9250.000000	77.286	119.5032
9380.000000	76.453	117.9446
9500.000000	75.757	117.0813
9620.000000	75.128	116.7974
9750.000000	74.515	117.1870
9880.000000	73.979	118.3071
10000.000000	73.562	119.9358
10150.000000	73.152	122.6611
10300.000000	72.859	126.0859
10440.000000	72.682	129.9189
10600.000000	72.600	135.1067
10750.000000	72.658	140.8101
10900.000000	72.888	147.3672
11060.000000	73.382	155.2153
11200.000000	74.074	162.4785
11380.000000	75.337	171.4126
11500.000000	76.370	176.3689
11720.000000	78.406	-178.0142
11800.000000	79.108	-177.1162
12060.000000	80.993	-176.5391
12200.000000	81.782	-176.1440
12410.000000	82.944	-173.7317
12500.000000	83.517	-172.1331
12650.000000	84.609	-169.5081
12800.000000	85.806	-167.9526
13150.000000	88.207	-171.5796
13200.000000	88.439	-172.8125
13400.000000	89.009	-178.5676
13600.000000	89.053	175.7710
13800.000000	88.746	171.5103
14000.000000	88.277	168.9578
14300.000000	87.442	167.3701
14500.000000	86.750	167.3621
14750.000000	85.639	169.0342
15000.000000	84.280	173.5613
15250.000000	82.813	-178.8333
15500.000000	81.352	-169.4927
15750.000000	79.893	-160.6907
16000.000000	78.290	-153.6309
16250.000000	76.346	-147.2451
16500.000000	73.955	-139.0508
16750.000000	71.168	-126.5269
17000.000000	68.152	-107.7720
17250.000000	65.113	-81.7925
17500.000000	62.241	-48.9602
17750.000000	59.683	-11.2456
18000.000000	57.519	28.6858
18250.000000	55.754	69.1741
18500.000000	54.344	110.2246
18750.000000	53.213	151.4956
19000.000000	52.271	-168.2908
19250.000000	51.421	-128.5825
19500.000000	50.630	-85.2429
19750.000000	49.999	-39.1345
20000.000000	49.677	-11.1646
