* Measurement data measured by REW V5.31.1
* Source: Microphone (4- USB Audio Device), MICROPHONE (Master Volume), R, volume: 0.250
* Format: 256k Log Swept Sine, 1 sweep at -12.0 dBFS with no timing reference
* Dated: 20-May-2024 11:35:08
* REW Settings:
*  C-weighting compensation: Off
*  Target level: 75.0 dB
* Note: 
* Measurement: Oppo Enco X2 (Dyn S&S) L
* Smoothing: 1/12 octave
* Frequency Step: 1/48 octave
* Start Frequency: 20.300 Hz
*
* Freq(Hz)	SPL(dB)	Phase(degrees)
20.299999	73.763	93.7720
20.600000	73.825	92.6825
20.900000	73.907	91.3257
21.200001	74.003	89.9088
21.400000	74.075	88.9822
21.799999	74.234	87.2371
22.000000	74.320	86.4326
22.400000	74.497	84.9698
22.700001	74.629	83.9938
23.000000	74.754	83.1061
23.299999	74.870	82.2864
23.600000	74.976	81.5104
24.000000	75.104	80.4989
24.299999	75.195	79.7287
24.700001	75.311	78.6606
25.000000	75.399	77.8278
25.400000	75.516	76.6960
25.799999	75.636	75.5751
26.200001	75.758	74.4963
26.500000	75.848	73.7211
26.900000	75.964	72.7271
27.200001	76.045	72.0045
27.600000	76.141	71.0652
28.000000	76.227	70.1527
28.500000	76.326	69.0459
29.000000	76.425	67.9555
29.500000	76.528	66.8533
30.000000	76.629	65.7390
30.400000	76.702	64.8606
30.700001	76.753	64.2207
31.100000	76.816	63.3938
31.500000	76.876	62.5825
32.000000	76.950	61.5556
32.500000	77.019	60.4929
33.000000	77.083	59.4073
33.500000	77.142	58.3283
34.000000	77.199	57.2721
34.500000	77.254	56.2357
35.000000	77.308	55.2115
35.500000	77.360	54.1975
36.000000	77.411	53.1969
36.500000	77.459	52.2135
37.000000	77.506	51.2502
37.500000	77.550	50.3077
38.200001	77.606	49.0191
38.700001	77.641	48.1238
39.500000	77.690	46.7648
40.000000	77.721	45.9715
40.599998	77.758	45.0571
41.200001	77.793	44.1557
41.799999	77.821	43.2701
42.500000	77.845	42.2977
43.099998	77.864	41.5234
43.700001	77.887	40.7613
44.400002	77.915	39.8210
45.000000	77.937	38.9502
45.500000	77.954	38.1885
46.200001	77.980	37.1040
46.799999	78.004	36.2125
47.500000	78.028	35.3088
48.200001	78.051	34.5889
48.700001	78.069	34.1334
49.400002	78.094	33.4467
50.000000	78.107	32.7536
50.799999	78.104	31.7564
51.500000	78.091	30.9274
52.200001	78.082	30.1603
53.000000	78.076	29.3108
53.799999	78.075	28.4739
54.500000	78.079	27.7592
55.200001	78.084	27.0596
56.000000	78.083	26.2758
57.000000	78.065	25.3110
58.000000	78.037	24.3598
59.000000	78.019	23.4539
60.000000	78.021	22.5724
60.799999	78.027	21.8499
61.500000	78.027	21.2153
62.200001	78.020	20.6055
63.000000	78.008	19.9581
64.000000	77.990	19.2188
65.000000	77.972	18.5260
66.000000	77.949	17.8202
67.000000	77.916	17.0740
68.000000	77.875	16.3368
69.000000	77.836	15.6526
70.000000	77.800	15.0132
71.000000	77.764	14.3775
72.000000	77.727	13.7290
73.000000	77.693	13.1074
74.000000	77.666	12.5485
75.000000	77.645	12.0301
76.199997	77.616	11.4087
77.500000	77.568	10.7300
78.800003	77.507	10.0400
80.000000	77.448	9.3789
81.199997	77.392	8.7209
82.500000	77.332	8.0257
83.800003	77.269	7.3587
85.000000	77.207	6.8212
86.199997	77.138	6.3470
87.500000	77.060	5.8142
88.500000	77.002	5.3933
90.000000	76.922	4.8376
91.199997	76.859	4.4515
92.500000	76.783	4.0389
93.800003	76.696	3.6258
95.000000	76.606	3.2684
96.199997	76.516	2.9403
97.500000	76.428	2.6068
98.800003	76.343	2.2961
100.000000	76.258	2.0471
101.500000	76.140	1.7890
103.000000	76.020	1.5611
104.400002	75.920	1.3569
106.000000	75.819	1.1450
107.500000	75.721	0.9706
109.000000	75.614	0.8264
110.599998	75.495	0.7286
112.000000	75.392	0.7147
113.800003	75.263	0.8173
115.000000	75.182	0.9472
117.199997	75.037	1.2598
118.000000	74.985	1.3931
120.599998	74.815	1.8984
122.000000	74.724	2.1911
124.099998	74.582	2.6150
125.000000	74.518	2.8034
126.500000	74.414	3.1483
128.000000	74.317	3.5245
131.500000	74.118	4.4546
132.000000	74.090	4.6001
134.000000	73.970	5.2168
136.000000	73.847	5.8682
138.000000	73.739	6.5811
140.000000	73.643	7.3838
143.000000	73.507	8.6472
145.000000	73.418	9.4455
147.500000	73.311	10.3601
150.000000	73.215	11.2847
152.500000	73.140	12.3304
155.000000	73.082	13.4183
157.500000	73.032	14.4111
160.000000	72.986	15.3303
162.500000	72.943	16.2738
165.000000	72.909	17.2131
167.500000	72.878	18.0790
170.000000	72.844	18.9667
172.500000	72.807	19.9941
175.000000	72.773	21.0875
177.500000	72.739	22.0938
180.000000	72.698	23.0152
182.500000	72.653	23.9734
185.000000	72.616	24.9907
187.500000	72.598	25.9834
190.000000	72.602	26.9099
192.500000	72.624	27.7853
195.000000	72.653	28.6105
197.500000	72.677	29.3956
200.000000	72.686	30.1750
203.000000	72.680	31.1443
206.000000	72.670	32.1267
209.000000	72.673	33.1066
212.000000	72.690	34.0820
214.000000	72.706	34.7176
218.000000	72.737	35.9516
220.000000	72.751	36.5367
224.000000	72.765	37.6276
227.000000	72.755	38.3941
230.000000	72.731	39.1600
233.000000	72.701	39.9813
236.000000	72.678	40.9051
240.000000	72.647	42.2821
243.000000	72.618	43.3447
247.000000	72.572	44.7516
250.000000	72.538	45.7960
254.000000	72.495	47.1775
258.000000	72.454	48.5886
262.000000	72.412	50.0633
265.000000	72.377	51.1772
269.000000	72.328	52.6583
272.000000	72.292	53.7790
276.000000	72.248	55.2865
280.000000	72.213	56.8032
285.000000	72.185	58.7387
290.000000	72.172	60.7223
295.000000	72.161	62.7516
300.000000	72.147	64.9038
304.000000	72.139	66.6966
307.000000	72.136	68.0514
311.000000	72.133	69.8472
315.000000	72.134	71.6298
320.000000	72.143	73.8776
325.000000	72.166	76.1519
330.000000	72.195	78.3597
335.000000	72.222	80.4492
340.000000	72.253	82.4189
345.000000	72.295	84.2413
350.000000	72.343	85.8848
355.000000	72.381	87.3546
360.000000	72.408	88.6616
365.000000	72.429	89.8541
370.000000	72.452	90.9888
375.000000	72.480	92.0857
382.000000	72.526	93.6018
387.000000	72.569	94.7172
395.000000	72.652	96.4749
400.000000	72.703	97.5065
406.000000	72.761	98.7262
412.000000	72.802	99.9611
418.000000	72.826	101.1783
425.000000	72.857	102.5104
431.000000	72.901	103.5628
437.000000	72.954	104.5725
444.000000	73.004	105.7475
450.000000	73.026	106.7342
455.000000	73.031	107.5309
462.000000	73.032	108.6080
468.000000	73.039	109.4843
475.000000	73.052	110.4648
482.000000	73.063	111.4282
487.000000	73.069	112.1071
494.000000	73.076	113.0410
500.000000	73.080	113.8416
508.000000	73.086	114.9411
515.000000	73.090	115.9226
522.000000	73.092	116.8978
530.000000	73.089	117.9934
538.000000	73.080	119.0852
545.000000	73.067	120.0567
552.000000	73.046	121.0432
560.000000	73.018	122.1877
570.000000	72.988	123.6246
580.000000	72.964	125.0511
590.000000	72.939	126.4549
600.000000	72.914	127.8880
608.000000	72.897	129.0389
615.000000	72.882	130.0034
622.000000	72.862	130.9099
630.000000	72.825	131.9139
640.000000	72.762	133.2433
650.000000	72.701	134.6530
660.000000	72.649	136.0390
670.000000	72.595	137.4144
680.000000	72.548	138.8532
690.000000	72.515	140.3715
700.000000	72.501	141.8526
710.000000	72.495	143.2484
720.000000	72.476	144.6272
730.000000	72.432	146.0515
740.000000	72.370	147.4988
750.000000	72.300	148.8866
762.000000	72.229	150.5206
775.000000	72.183	152.4936
788.000000	72.155	154.6590
800.000000	72.129	156.7231
812.000000	72.094	158.7906
825.000000	72.050	160.9835
838.000000	72.015	163.1805
850.000000	71.987	165.2606
862.000000	71.963	167.4185
875.000000	71.945	169.8453
885.000000	71.937	171.7434
900.000000	71.931	174.6033
912.000000	71.927	176.9133
925.000000	71.924	179.4181
938.000000	71.923	-178.0769
950.000000	71.924	-175.7342
962.000000	71.933	-173.3297
975.000000	71.949	-170.6716
988.000000	71.962	-168.0507
1000.000000	71.962	-165.7477
1015.000000	71.950	-162.9826
1030.000000	71.939	-160.2146
1044.000000	71.942	-157.5736
1060.000000	71.967	-154.5264
1075.000000	72.010	-151.7091
1090.000000	72.063	-148.9859
1106.000000	72.132	-146.2162
1120.000000	72.205	-143.9028
1138.000000	72.296	-141.0233
1150.000000	72.347	-139.1566
1172.000000	72.419	-135.8956
1180.000000	72.440	-134.7514
1206.000000	72.488	-131.0923
1220.000000	72.492	-129.1123
1241.000000	72.473	-125.9795
1250.000000	72.461	-124.5328
1265.000000	72.443	-121.9462
1280.000000	72.434	-119.1581
1315.000000	72.446	-112.4045
1320.000000	72.450	-111.4695
1340.000000	72.467	-107.8903
1360.000000	72.484	-104.5732
1380.000000	72.500	-101.4578
1400.000000	72.513	-98.4535
1430.000000	72.533	-94.1052
1450.000000	72.544	-91.3231
1475.000000	72.563	-87.8702
1500.000000	72.598	-84.4620
1525.000000	72.641	-81.1137
1550.000000	72.693	-77.7722
1575.000000	72.763	-74.3763
1600.000000	72.837	-70.9208
1625.000000	72.902	-67.4313
1650.000000	72.958	-63.8616
1675.000000	73.022	-60.1051
1700.000000	73.108	-56.1263
1725.000000	73.199	-52.0381
1750.000000	73.284	-48.0356
1775.000000	73.373	-44.2339
1800.000000	73.477	-40.5768
1825.000000	73.595	-36.9630
1850.000000	73.721	-33.3949
1875.000000	73.853	-29.9018
1900.000000	73.990	-26.5013
1925.000000	74.122	-23.1987
1950.000000	74.243	-19.9844
1975.000000	74.352	-16.8231
2000.000000	74.460	-13.6744
2030.000000	74.604	-9.9129
2060.000000	74.766	-6.2440
2090.000000	74.927	-2.7262
2120.000000	75.075	0.7222
2140.000000	75.169	3.0388
2180.000000	75.361	7.7751
2200.000000	75.464	10.1527
2240.000000	75.676	14.7026
2270.000000	75.830	17.7704
2300.000000	75.977	20.4436
2330.000000	76.117	22.7742
2360.000000	76.258	24.9624
2400.000000	76.453	27.9300
2430.000000	76.598	30.2255
2470.000000	76.785	33.3335
2500.000000	76.918	35.6479
2540.000000	77.088	38.6621
2580.000000	77.246	41.4817
2620.000000	77.384	43.9532
2650.000000	77.470	45.5922
2690.000000	77.565	47.6483
2720.000000	77.623	49.1642
2760.000000	77.685	51.1161
2800.000000	77.725	52.8838
2850.000000	77.733	54.7444
2900.000000	77.694	56.3741
2950.000000	77.635	58.1827
3000.000000	77.559	60.3667
3040.000000	77.477	62.2804
3070.000000	77.407	63.7550
3110.000000	77.313	65.7251
3150.000000	77.213	67.5527
3200.000000	77.072	69.3358
3250.000000	76.912	70.6165
3300.000000	76.750	71.9236
3350.000000	76.588	73.6519
3400.000000	76.421	75.8293
3450.000000	76.255	78.4254
3500.000000	76.102	81.3964
3550.000000	75.963	84.5635
3600.000000	75.831	87.6592
3650.000000	75.701	90.4165
3700.000000	75.574	92.7425
3750.000000	75.455	94.7616
3820.000000	75.308	97.4629
3870.000000	75.217	99.5231
3950.000000	75.079	103.1899
4000.000000	74.997	105.6788
4060.000000	74.913	108.6045
4120.000000	74.844	111.1759
4180.000000	74.775	113.2559
4250.000000	74.671	115.3096
4310.000000	74.593	117.3283
4370.000000	74.562	119.8132
4440.000000	74.565	122.8433
4500.000000	74.570	125.2622
4550.000000	74.563	127.1421
4620.000000	74.532	129.6528
4680.000000	74.498	131.7733
4750.000000	74.479	134.1165
4820.000000	74.488	135.9884
4870.000000	74.511	136.9380
4940.000000	74.558	137.9214
5000.000000	74.605	138.7841
5080.000000	74.663	140.2953
5150.000000	74.700	141.8659
5220.000000	74.731	143.5475
5300.000000	74.780	145.7233
5380.000000	74.844	148.2527
5450.000000	74.897	150.5616
5520.000000	74.941	152.6405
5600.000000	74.972	154.4514
5700.000000	74.971	155.8629
5800.000000	74.918	156.6414
5900.000000	74.804	157.2914
6000.000000	74.662	158.4415
6080.000000	74.596	159.8790
6150.000000	74.604	161.3490
6220.000000	74.663	162.8746
6300.000000	74.762	164.6756
6400.000000	74.909	167.0348
6500.000000	75.077	169.3848
6600.000000	75.289	171.9191
6700.000000	75.577	174.9396
6800.000000	75.961	177.9856
6900.000000	76.427	-179.9501
7000.000000	76.962	-179.3669
7100.000000	77.553	179.9524
7200.000000	78.172	178.2750
7300.000000	78.760	175.6551
7400.000000	79.253	172.2826
7500.000000	79.584	168.4716
7620.000000	79.674	163.3786
7750.000000	79.322	157.5059
7880.000000	78.548	152.4672
8000.000000	77.561	149.5123
8120.000000	76.427	148.4233
8250.000000	75.137	148.9412
8380.000000	73.857	150.7789
8500.000000	72.730	153.5258
8620.000000	71.672	157.1141
8750.000000	70.606	161.5519
8850.000000	69.846	165.0605
9000.000000	68.796	170.0391
9120.000000	68.027	173.6885
9250.000000	67.270	177.6364
9380.000000	66.593	-178.0443
9500.000000	66.033	-173.6760
9620.000000	65.529	-169.0380
9750.000000	65.046	-163.7794
9880.000000	64.638	-158.2532
10000.000000	64.335	-152.9437
10150.000000	64.056	-146.3265
10300.000000	63.882	-140.0432
10440.000000	63.810	-134.4493
10600.000000	63.831	-128.1185
10750.000000	63.958	-121.9451
10900.000000	64.205	-115.2057
11060.000000	64.621	-107.0928
11200.000000	65.126	-99.1286
11380.000000	65.968	-88.1832
11500.000000	66.642	-81.0762
11720.000000	68.062	-70.5161
11800.000000	68.620	-67.9413
12060.000000	70.487	-64.7343
12200.000000	71.479	-65.9631
12410.000000	72.886	-71.1493
12500.000000	73.451	-74.4319
12650.000000	74.337	-80.9728
12800.000000	75.152	-88.4127
13150.000000	76.562	-108.1134
13200.000000	76.665	-111.2712
13400.000000	76.709	-124.5834
13600.000000	76.116	-137.3804
13800.000000	75.092	-146.9724
14000.000000	74.191	-152.2749
14300.000000	73.851	-157.8057
14500.000000	73.822	-163.6151
14750.000000	73.370	-172.2775
15000.000000	72.568	-179.5283
15250.000000	71.852	175.8993
15500.000000	71.546	173.3528
15750.000000	71.607	170.7656
16000.000000	71.715	166.1618
16250.000000	71.567	159.3683
16500.000000	71.012	151.8204
16750.000000	70.044	145.1212
17000.000000	68.761	140.2188
17250.000000	67.326	137.7932
17500.000000	65.937	137.7545
17750.000000	64.783	139.1335
18000.000000	63.996	140.9640
18250.000000	63.647	143.0328
18500.000000	63.695	145.2316
18750.000000	63.992	147.0718
19000.000000	64.370	148.2882
19250.000000	64.709	149.1459
19500.000000	64.960	150.1732
19750.000000	65.127	151.5276
20000.000000	65.213	152.6161
