* Measurement data measured by REW V5.31.1
* Source: Microphone (4- USB Audio Device), MICROPHONE (Master Volume), R, volume: 0.250
* Format: 256k Log Swept Sine, 1 sweep at -12.0 dBFS with no timing reference
* Dated: 20-May-2024 11:35:37
* REW Settings:
*  C-weighting compensation: Off
*  Target level: 75.0 dB
* Note: 
* Measurement: Oppo Enco X2 (Dyn S&S) R
* Smoothing: 1/12 octave
* Frequency Step: 1/48 octave
* Start Frequency: 20.300 Hz
*
* Freq(Hz)	SPL(dB)	Phase(degrees)
20.299999	73.740	98.6307
20.600000	73.807	97.5930
20.900000	73.899	96.2858
21.200001	74.006	94.8997
21.400000	74.083	93.9819
21.799999	74.247	92.2403
22.000000	74.333	91.4395
22.400000	74.504	90.0070
22.700001	74.630	89.0783
23.000000	74.750	88.2520
23.299999	74.863	87.4951
23.600000	74.968	86.7720
24.000000	75.096	85.8085
24.299999	75.184	85.0630
24.700001	75.296	84.0263
25.000000	75.380	83.2205
25.400000	75.497	82.1225
25.799999	75.620	81.0185
26.200001	75.746	79.9335
26.500000	75.839	79.1465
26.900000	75.958	78.1460
27.200001	76.041	77.4331
27.600000	76.146	76.5212
28.000000	76.243	75.6294
28.500000	76.357	74.5070
29.000000	76.460	73.3659
29.500000	76.553	72.2368
30.000000	76.638	71.1595
30.400000	76.702	70.3394
30.700001	76.749	69.7374
31.100000	76.809	68.9298
31.500000	76.866	68.0949
32.000000	76.929	67.0022
32.500000	76.984	65.8754
33.000000	77.037	64.7503
33.500000	77.094	63.6500
34.000000	77.157	62.5790
34.500000	77.222	61.5359
35.000000	77.285	60.5239
35.500000	77.343	59.5476
36.000000	77.394	58.6054
36.500000	77.439	57.6900
37.000000	77.476	56.7935
37.500000	77.509	55.9092
38.200001	77.549	54.6783
38.700001	77.578	53.7963
39.500000	77.633	52.3836
40.000000	77.673	51.5109
40.599998	77.726	50.4879
41.200001	77.776	49.5024
41.799999	77.818	48.5626
42.500000	77.853	47.5193
43.099998	77.874	46.6516
43.700001	77.892	45.7948
44.400002	77.912	44.8212
45.000000	77.932	44.0341
45.500000	77.952	43.4166
46.200001	77.985	42.5850
46.799999	78.013	41.8747
47.500000	78.041	41.0463
48.200001	78.064	40.2331
48.700001	78.080	39.6531
49.400002	78.102	38.8128
50.000000	78.115	38.0602
50.799999	78.123	37.0467
51.500000	78.125	36.1758
52.200001	78.124	35.3181
53.000000	78.117	34.3620
53.799999	78.106	33.4595
54.500000	78.097	32.7204
55.200001	78.091	32.0121
56.000000	78.083	31.2139
57.000000	78.069	30.2210
58.000000	78.052	29.2761
59.000000	78.041	28.4109
60.000000	78.031	27.5826
60.799999	78.015	26.9100
61.500000	77.997	26.3037
62.200001	77.979	25.6839
63.000000	77.960	24.9722
64.000000	77.944	24.0888
65.000000	77.932	23.1892
66.000000	77.917	22.2792
67.000000	77.896	21.4368
68.000000	77.873	20.6930
69.000000	77.850	19.9650
70.000000	77.826	19.1577
71.000000	77.794	18.2941
72.000000	77.753	17.4703
73.000000	77.707	16.7291
74.000000	77.662	16.0679
75.000000	77.621	15.4815
76.199997	77.575	14.8416
77.500000	77.522	14.1510
78.800003	77.470	13.3853
80.000000	77.423	12.6294
81.199997	77.373	11.9000
82.500000	77.316	11.1631
83.800003	77.260	10.4749
85.000000	77.208	9.8845
86.199997	77.147	9.3438
87.500000	77.065	8.8174
88.500000	76.995	8.4230
90.000000	76.889	7.7774
91.199997	76.802	7.2467
92.500000	76.709	6.7056
93.800003	76.626	6.1934
95.000000	76.560	5.7748
96.199997	76.494	5.4455
97.500000	76.414	5.1759
98.800003	76.325	4.9272
100.000000	76.238	4.6404
101.500000	76.132	4.1782
103.000000	76.029	3.7175
104.400002	75.929	3.3559
106.000000	75.811	2.9627
107.500000	75.703	2.5976
109.000000	75.598	2.3043
110.599998	75.485	2.1126
112.000000	75.385	2.0341
113.800003	75.261	1.9983
115.000000	75.178	1.9899
117.199997	75.021	1.9899
118.000000	74.965	1.9910
120.599998	74.795	2.0095
122.000000	74.700	2.0331
124.099998	74.549	2.1256
125.000000	74.483	2.2038
126.500000	74.376	2.3818
128.000000	74.277	2.5864
131.500000	74.068	2.9676
132.000000	74.038	3.0174
134.000000	73.928	3.2731
136.000000	73.830	3.6453
138.000000	73.738	4.0861
140.000000	73.640	4.5263
143.000000	73.499	5.1815
145.000000	73.416	5.5999
147.500000	73.325	6.0567
150.000000	73.239	6.5092
152.500000	73.157	7.0089
155.000000	73.092	7.5489
157.500000	73.038	8.1145
160.000000	72.998	8.7119
162.500000	72.970	9.3211
165.000000	72.937	9.8957
167.500000	72.893	10.3735
170.000000	72.847	10.7605
172.500000	72.806	11.1607
175.000000	72.769	11.6330
177.500000	72.731	12.1402
180.000000	72.698	12.6702
182.500000	72.666	13.2303
185.000000	72.635	13.7745
187.500000	72.614	14.2729
190.000000	72.606	14.7248
192.500000	72.611	15.0989
195.000000	72.623	15.3790
197.500000	72.640	15.5790
200.000000	72.658	15.7302
203.000000	72.674	15.9180
206.000000	72.679	16.1546
209.000000	72.683	16.4704
212.000000	72.703	16.8468
214.000000	72.723	17.0847
218.000000	72.768	17.4471
220.000000	72.787	17.5913
224.000000	72.811	17.8811
227.000000	72.809	18.1297
230.000000	72.793	18.4025
233.000000	72.767	18.6805
236.000000	72.734	18.9432
240.000000	72.682	19.2762
243.000000	72.639	19.5247
247.000000	72.585	19.8561
250.000000	72.548	20.1366
254.000000	72.499	20.5967
258.000000	72.445	21.1317
262.000000	72.387	21.6732
265.000000	72.346	22.0641
269.000000	72.300	22.5834
272.000000	72.272	22.9910
276.000000	72.240	23.5958
280.000000	72.215	24.2729
285.000000	72.192	25.1867
290.000000	72.168	26.1460
295.000000	72.142	27.0996
300.000000	72.125	27.9920
304.000000	72.117	28.6667
307.000000	72.112	29.1675
311.000000	72.112	29.8480
315.000000	72.120	30.5367
320.000000	72.136	31.3901
325.000000	72.157	32.2081
330.000000	72.188	32.9648
335.000000	72.225	33.6929
340.000000	72.261	34.4288
345.000000	72.298	35.1476
350.000000	72.335	35.7974
355.000000	72.370	36.3853
360.000000	72.401	36.9474
365.000000	72.427	37.5089
370.000000	72.454	38.0541
375.000000	72.485	38.5294
382.000000	72.541	39.0569
387.000000	72.587	39.3994
395.000000	72.663	40.0700
400.000000	72.712	40.5352
406.000000	72.761	41.0462
412.000000	72.795	41.5442
418.000000	72.824	42.0991
425.000000	72.856	42.6922
431.000000	72.884	43.0638
437.000000	72.913	43.3885
444.000000	72.958	43.7761
450.000000	73.000	44.0556
455.000000	73.028	44.1985
462.000000	73.049	44.2081
468.000000	73.057	44.1026
475.000000	73.071	44.0042
482.000000	73.084	43.9543
487.000000	73.089	43.9139
494.000000	73.090	43.8752
500.000000	73.087	43.8905
508.000000	73.083	43.9140
515.000000	73.083	43.8418
522.000000	73.088	43.6936
530.000000	73.091	43.5220
538.000000	73.087	43.3860
545.000000	73.080	43.2954
552.000000	73.068	43.2170
560.000000	73.048	43.1485
570.000000	73.013	43.1182
580.000000	72.971	43.1040
590.000000	72.934	43.1256
600.000000	72.910	43.2511
608.000000	72.894	43.3712
615.000000	72.872	43.4491
622.000000	72.841	43.4869
630.000000	72.797	43.4907
640.000000	72.732	43.5064
650.000000	72.670	43.5900
660.000000	72.620	43.7278
670.000000	72.584	43.9221
680.000000	72.550	44.1407
690.000000	72.514	44.3286
700.000000	72.474	44.5064
710.000000	72.432	44.7744
720.000000	72.392	45.2019
730.000000	72.352	45.7300
740.000000	72.313	46.2184
750.000000	72.280	46.6056
762.000000	72.249	47.0283
775.000000	72.215	47.5442
788.000000	72.171	48.1162
800.000000	72.122	48.5820
812.000000	72.085	48.9581
825.000000	72.055	49.3174
838.000000	72.024	49.6893
850.000000	71.990	50.0439
862.000000	71.963	50.3510
875.000000	71.950	50.6271
885.000000	71.950	50.8065
900.000000	71.953	50.9872
912.000000	71.951	51.0407
925.000000	71.947	51.0675
938.000000	71.950	51.0853
950.000000	71.959	51.1219
962.000000	71.965	51.2117
975.000000	71.967	51.3119
988.000000	71.965	51.3489
1000.000000	71.959	51.3183
1015.000000	71.943	51.2895
1030.000000	71.926	51.4527
1044.000000	71.925	51.8912
1060.000000	71.954	52.6817
1075.000000	72.010	53.4791
1090.000000	72.078	54.1689
1106.000000	72.150	54.8219
1120.000000	72.209	55.3783
1138.000000	72.288	56.0381
1150.000000	72.345	56.3974
1172.000000	72.440	56.8095
1180.000000	72.468	56.8720
1206.000000	72.519	56.8190
1220.000000	72.519	56.6893
1241.000000	72.497	56.5417
1250.000000	72.482	56.5432
1265.000000	72.455	56.6580
1280.000000	72.434	56.9264
1315.000000	72.440	57.9029
1320.000000	72.446	58.0392
1340.000000	72.471	58.5037
1360.000000	72.487	58.8298
1380.000000	72.496	59.0904
1400.000000	72.509	59.3997
1430.000000	72.540	60.0030
1450.000000	72.571	60.3444
1475.000000	72.620	60.5191
1500.000000	72.663	60.3634
1525.000000	72.688	59.8408
1550.000000	72.713	59.0939
1575.000000	72.751	58.3272
1600.000000	72.791	57.5922
1625.000000	72.839	56.8963
1650.000000	72.909	56.2234
1675.000000	72.997	55.5044
1700.000000	73.085	54.7322
1725.000000	73.173	53.9451
1750.000000	73.275	53.1827
1775.000000	73.384	52.4101
1800.000000	73.492	51.5082
1825.000000	73.603	50.4456
1850.000000	73.721	49.3050
1875.000000	73.850	48.1858
1900.000000	73.987	47.1032
1925.000000	74.122	45.9775
1950.000000	74.251	44.7524
1975.000000	74.380	43.4633
2000.000000	74.507	42.1954
2030.000000	74.651	40.7819
2060.000000	74.790	39.5243
2090.000000	74.934	38.4257
2120.000000	75.081	37.4314
2140.000000	75.177	36.7507
2180.000000	75.364	35.2911
2200.000000	75.457	34.5710
2240.000000	75.649	33.2582
2270.000000	75.799	32.4198
2300.000000	75.954	31.6855
2330.000000	76.110	31.0151
2360.000000	76.260	30.3604
2400.000000	76.457	29.4432
2430.000000	76.599	28.7056
2470.000000	76.779	27.6493
2500.000000	76.913	26.8469
2540.000000	77.086	25.8049
2580.000000	77.241	24.7358
2620.000000	77.372	23.6178
2650.000000	77.455	22.7953
2690.000000	77.548	21.7839
2720.000000	77.605	21.0796
2760.000000	77.664	20.1491
2800.000000	77.706	19.1595
2850.000000	77.726	17.8106
2900.000000	77.702	16.3556
2950.000000	77.645	14.7111
3000.000000	77.564	12.9395
3040.000000	77.491	11.5721
3070.000000	77.430	10.6168
3110.000000	77.335	9.4198
3150.000000	77.224	8.3075
3200.000000	77.075	7.0479
3250.000000	76.918	5.8909
3300.000000	76.752	4.8161
3350.000000	76.587	3.8792
3400.000000	76.424	3.0845
3450.000000	76.264	2.3968
3500.000000	76.105	1.7573
3550.000000	75.949	1.1387
3600.000000	75.806	0.5608
3650.000000	75.673	-0.0090
3700.000000	75.544	-0.5935
3750.000000	75.421	-1.1218
3820.000000	75.276	-1.6753
3870.000000	75.188	-2.0357
3950.000000	75.069	-2.8210
4000.000000	75.005	-3.3595
4060.000000	74.928	-3.7907
4120.000000	74.848	-3.8091
4180.000000	74.773	-3.3948
4250.000000	74.682	-2.4966
4310.000000	74.606	-1.4568
4370.000000	74.567	-0.2351
4440.000000	74.563	1.1587
4500.000000	74.567	2.0497
4550.000000	74.559	2.4433
4620.000000	74.527	2.4877
4680.000000	74.495	2.2428
4750.000000	74.476	1.7796
4820.000000	74.490	1.0841
4870.000000	74.519	0.3672
4940.000000	74.570	-1.0232
5000.000000	74.614	-2.5157
5080.000000	74.666	-4.6625
5150.000000	74.705	-6.4090
5220.000000	74.744	-7.7229
5300.000000	74.800	-8.3828
5380.000000	74.864	-8.3260
5450.000000	74.915	-8.1722
5520.000000	74.955	-8.1945
5600.000000	74.985	-8.3712
5700.000000	74.986	-8.5008
5800.000000	74.939	-8.3283
5900.000000	74.828	-7.8698
6000.000000	74.678	-7.1507
6080.000000	74.597	-6.2958
6150.000000	74.596	-5.3557
6220.000000	74.651	-4.3144
6300.000000	74.747	-3.0140
6400.000000	74.892	-1.0360
6500.000000	75.072	1.5145
6600.000000	75.303	4.5592
6700.000000	75.595	7.8968
6800.000000	75.956	11.4209
6900.000000	76.398	14.9156
7000.000000	76.925	18.0620
7100.000000	77.524	20.5384
7200.000000	78.156	21.8917
7300.000000	78.756	21.6915
7400.000000	79.252	19.9371
7500.000000	79.576	17.1420
7620.000000	79.659	13.4203
7750.000000	79.325	10.0187
7880.000000	78.572	7.9427
8000.000000	77.593	7.1654
8120.000000	76.453	7.1560
8250.000000	75.154	8.0660
8380.000000	73.878	10.1098
8500.000000	72.755	12.7590
8620.000000	71.692	15.7720
8750.000000	70.622	19.2648
8850.000000	69.859	22.0036
9000.000000	68.813	25.8493
9120.000000	68.051	28.3508
9250.000000	67.289	30.2403
9380.000000	66.593	31.5588
9500.000000	66.018	32.9045
9620.000000	65.508	34.8991
9750.000000	65.032	37.9335
9880.000000	64.634	41.5806
10000.000000	64.333	45.2616
10150.000000	64.053	50.2976
10300.000000	63.878	55.7265
10440.000000	63.800	61.2204
10600.000000	63.824	68.5795
10750.000000	63.966	76.3583
10900.000000	64.222	83.8607
11060.000000	64.626	90.7754
11200.000000	65.111	96.1937
11380.000000	65.934	102.7021
11500.000000	66.603	106.3842
11720.000000	68.033	110.2744
11800.000000	68.598	110.5638
12060.000000	70.484	107.7791
12200.000000	71.478	104.4135
12410.000000	72.880	97.4631
12500.000000	73.443	93.9558
12650.000000	74.331	87.7031
12800.000000	75.152	81.0544
13150.000000	76.575	61.8450
13200.000000	76.679	58.4418
13400.000000	76.719	43.3899
13600.000000	76.110	27.9457
13800.000000	75.067	15.4721
14000.000000	74.146	7.5224
14300.000000	73.787	-0.7568
14500.000000	73.771	-6.8115
14750.000000	73.352	-14.1129
15000.000000	72.577	-19.8434
15250.000000	71.860	-25.1965
15500.000000	71.521	-31.3421
15750.000000	71.556	-38.0822
16000.000000	71.657	-45.7337
16250.000000	71.517	-54.3880
16500.000000	70.981	-62.9971
16750.000000	70.034	-70.0660
17000.000000	68.770	-74.1246
17250.000000	67.355	-74.1680
17500.000000	65.978	-70.6542
17750.000000	64.821	-65.0731
18000.000000	64.031	-58.7401
18250.000000	63.676	-52.5608
18500.000000	63.710	-47.3869
18750.000000	63.995	-43.8092
19000.000000	64.367	-41.7791
19250.000000	64.701	-41.0779
19500.000000	64.945	-41.6401
19750.000000	65.102	-43.1232
20000.000000	65.181	-44.3791
