* Measurement data measured by REW V5.20.13
* Source: Frequency Response Averaged data
* Format: Averaged data produced from the rms magnitudes of QCY G1 R, QCY G1 R, QCY G1 R
* Dated: 03-Feb-2023 13:47:07
* REW Settings:
*  C-weighting compensation: Off
*  Target level: 75.0 dB
* Note: 
* Measurement: QCY G1 R
* Smoothing: 1/12 octave
* Frequency Step: 1/48 octave
* Start Frequency: 20.300 Hz
*
* Freq(Hz)	SPL(dB)
20.299999	70.039
20.600000	70.053
20.900000	70.091
21.200001	70.143
21.400000	70.180
21.799999	70.250
22.000000	70.284
22.400000	70.350
22.700001	70.396
23.000000	70.439
23.299999	70.477
23.600000	70.509
24.000000	70.547
24.299999	70.572
24.700001	70.609
25.000000	70.642
25.400000	70.693
25.799999	70.750
26.200001	70.807
26.500000	70.847
26.900000	70.890
27.200001	70.915
27.600000	70.939
28.000000	70.956
28.500000	70.975
29.000000	70.997
29.500000	71.027
30.000000	71.063
30.400000	71.092
30.700001	71.112
31.100000	71.136
31.500000	71.153
32.000000	71.168
32.500000	71.178
33.000000	71.190
33.500000	71.208
34.000000	71.230
34.500000	71.256
35.000000	71.279
35.500000	71.298
36.000000	71.310
36.500000	71.320
37.000000	71.331
37.500000	71.346
38.200001	71.371
38.700001	71.387
39.500000	71.398
40.000000	71.397
40.599998	71.395
41.200001	71.396
41.799999	71.402
42.500000	71.415
43.099998	71.431
43.700001	71.445
44.400002	71.457
45.000000	71.463
45.500000	71.467
46.200001	71.476
46.799999	71.485
47.500000	71.494
48.200001	71.497
48.700001	71.495
49.400002	71.486
50.000000	71.474
50.799999	71.454
51.500000	71.438
52.200001	71.422
53.000000	71.404
53.799999	71.386
54.500000	71.371
55.200001	71.357
56.000000	71.339
57.000000	71.313
58.000000	71.281
59.000000	71.247
60.000000	71.211
60.799999	71.182
61.500000	71.155
62.200001	71.126
63.000000	71.090
64.000000	71.042
65.000000	70.993
66.000000	70.945
67.000000	70.899
68.000000	70.851
69.000000	70.800
70.000000	70.746
71.000000	70.689
72.000000	70.630
73.000000	70.570
74.000000	70.510
75.000000	70.450
76.199997	70.377
77.500000	70.296
78.800003	70.215
80.000000	70.141
81.199997	70.066
82.500000	69.984
83.800003	69.904
85.000000	69.831
86.199997	69.758
87.500000	69.676
88.500000	69.610
90.000000	69.511
91.199997	69.432
92.500000	69.346
93.800003	69.258
95.000000	69.177
96.199997	69.095
97.500000	69.008
98.800003	68.923
100.000000	68.848
101.500000	68.757
103.000000	68.666
104.400002	68.580
106.000000	68.481
107.500000	68.390
109.000000	68.299
110.599998	68.202
112.000000	68.117
113.800003	68.009
115.000000	67.937
117.199997	67.807
118.000000	67.759
120.599998	67.601
122.000000	67.515
124.099998	67.388
125.000000	67.334
126.500000	67.246
128.000000	67.157
131.500000	66.947
132.000000	66.917
134.000000	66.799
136.000000	66.685
138.000000	66.572
140.000000	66.460
143.000000	66.293
145.000000	66.184
147.500000	66.050
150.000000	65.915
152.500000	65.779
155.000000	65.640
157.500000	65.501
160.000000	65.365
162.500000	65.230
165.000000	65.096
167.500000	64.961
170.000000	64.822
172.500000	64.679
175.000000	64.531
177.500000	64.380
180.000000	64.228
182.500000	64.080
185.000000	63.936
187.500000	63.794
190.000000	63.656
192.500000	63.521
195.000000	63.389
197.500000	63.261
200.000000	63.136
203.000000	62.988
206.000000	62.841
209.000000	62.699
212.000000	62.563
214.000000	62.475
218.000000	62.304
220.000000	62.221
224.000000	62.064
227.000000	61.954
230.000000	61.849
233.000000	61.750
236.000000	61.656
240.000000	61.539
243.000000	61.455
247.000000	61.349
250.000000	61.275
254.000000	61.186
258.000000	61.108
262.000000	61.040
265.000000	60.995
269.000000	60.944
272.000000	60.910
276.000000	60.870
280.000000	60.834
285.000000	60.792
290.000000	60.756
295.000000	60.726
300.000000	60.704
304.000000	60.689
307.000000	60.679
311.000000	60.664
315.000000	60.649
320.000000	60.632
325.000000	60.618
330.000000	60.605
335.000000	60.591
340.000000	60.575
345.000000	60.554
350.000000	60.531
355.000000	60.507
360.000000	60.486
365.000000	60.470
370.000000	60.458
375.000000	60.447
382.000000	60.427
387.000000	60.412
395.000000	60.390
400.000000	60.379
406.000000	60.368
412.000000	60.357
418.000000	60.344
425.000000	60.326
431.000000	60.310
437.000000	60.290
444.000000	60.264
450.000000	60.243
455.000000	60.229
462.000000	60.214
468.000000	60.204
475.000000	60.193
482.000000	60.184
487.000000	60.177
494.000000	60.168
500.000000	60.160
508.000000	60.150
515.000000	60.143
522.000000	60.138
530.000000	60.131
538.000000	60.123
545.000000	60.115
552.000000	60.109
560.000000	60.102
570.000000	60.093
580.000000	60.084
590.000000	60.074
600.000000	60.063
608.000000	60.055
615.000000	60.049
622.000000	60.045
630.000000	60.041
640.000000	60.037
650.000000	60.030
660.000000	60.024
670.000000	60.018
680.000000	60.008
690.000000	59.993
700.000000	59.976
710.000000	59.954
720.000000	59.928
730.000000	59.899
740.000000	59.868
750.000000	59.838
762.000000	59.802
775.000000	59.765
788.000000	59.735
800.000000	59.714
812.000000	59.703
825.000000	59.701
838.000000	59.707
850.000000	59.716
862.000000	59.728
875.000000	59.745
885.000000	59.762
900.000000	59.794
912.000000	59.823
925.000000	59.859
938.000000	59.897
950.000000	59.932
962.000000	59.968
975.000000	60.011
988.000000	60.057
1000.000000	60.100
1015.000000	60.152
1030.000000	60.203
1044.000000	60.251
1060.000000	60.311
1075.000000	60.370
1090.000000	60.431
1106.000000	60.497
1120.000000	60.552
1138.000000	60.620
1150.000000	60.667
1172.000000	60.752
1180.000000	60.781
1206.000000	60.868
1220.000000	60.907
1241.000000	60.959
1250.000000	60.980
1265.000000	61.013
1280.000000	61.045
1315.000000	61.111
1320.000000	61.120
1340.000000	61.154
1360.000000	61.186
1380.000000	61.212
1400.000000	61.233
1430.000000	61.261
1450.000000	61.281
1475.000000	61.308
1500.000000	61.337
1525.000000	61.375
1550.000000	61.421
1575.000000	61.472
1600.000000	61.522
1625.000000	61.572
1650.000000	61.627
1675.000000	61.690
1700.000000	61.758
1725.000000	61.825
1750.000000	61.892
1775.000000	61.963
1800.000000	62.037
1825.000000	62.115
1850.000000	62.194
1875.000000	62.275
1900.000000	62.358
1925.000000	62.442
1950.000000	62.523
1975.000000	62.603
2000.000000	62.684
2030.000000	62.784
2060.000000	62.887
2090.000000	62.994
2120.000000	63.107
2140.000000	63.185
2180.000000	63.343
2200.000000	63.422
2240.000000	63.585
2270.000000	63.710
2300.000000	63.837
2330.000000	63.964
2360.000000	64.090
2400.000000	64.254
2430.000000	64.376
2470.000000	64.540
2500.000000	64.664
2540.000000	64.824
2580.000000	64.975
2620.000000	65.113
2650.000000	65.207
2690.000000	65.319
2720.000000	65.392
2760.000000	65.472
2800.000000	65.534
2850.000000	65.586
2900.000000	65.612
2950.000000	65.609
3000.000000	65.580
3040.000000	65.538
3070.000000	65.495
3110.000000	65.424
3150.000000	65.338
3200.000000	65.215
3250.000000	65.078
3300.000000	64.927
3350.000000	64.767
3400.000000	64.605
3450.000000	64.448
3500.000000	64.295
3550.000000	64.147
3600.000000	64.004
3650.000000	63.865
3700.000000	63.730
3750.000000	63.600
3820.000000	63.427
3870.000000	63.307
3950.000000	63.114
4000.000000	62.998
4060.000000	62.873
4120.000000	62.763
4180.000000	62.663
4250.000000	62.557
4310.000000	62.475
4370.000000	62.402
4440.000000	62.328
4500.000000	62.276
4550.000000	62.239
4620.000000	62.198
4680.000000	62.174
4750.000000	62.157
4820.000000	62.152
4870.000000	62.156
4940.000000	62.173
5000.000000	62.200
5080.000000	62.248
5150.000000	62.300
5220.000000	62.357
5300.000000	62.425
5380.000000	62.498
5450.000000	62.571
5520.000000	62.665
5600.000000	62.807
5700.000000	63.037
5800.000000	63.306
5900.000000	63.588
6000.000000	63.855
6080.000000	64.029
6150.000000	64.137
6220.000000	64.193
6300.000000	64.183
6400.000000	64.055
6500.000000	63.805
6600.000000	63.451
6700.000000	63.016
6800.000000	62.528
6900.000000	62.016
7000.000000	61.505
7100.000000	61.017
7200.000000	60.566
7300.000000	60.165
7400.000000	59.819
7500.000000	59.523
7620.000000	59.231
7750.000000	59.002
7880.000000	58.872
8000.000000	58.852
8120.000000	58.943
8250.000000	59.183
8380.000000	59.586
8500.000000	60.111
8620.000000	60.768
8750.000000	61.569
8850.000000	62.175
9000.000000	62.890
9120.000000	63.138
9250.000000	62.953
9380.000000	62.252
9500.000000	61.191
9620.000000	59.828
9750.000000	58.142
9880.000000	56.379
10000.000000	54.779
10150.000000	52.910
10300.000000	51.234
10440.000000	49.849
10600.000000	48.458
10750.000000	47.311
10900.000000	46.289
11060.000000	45.304
11200.000000	44.510
11380.000000	43.561
11500.000000	42.969
11720.000000	41.960
11800.000000	41.615
12060.000000	40.562
12200.000000	40.037
12410.000000	39.304
12500.000000	39.009
12650.000000	38.541
12800.000000	38.101
13150.000000	37.204
13200.000000	37.093
13400.000000	36.690
13600.000000	36.350
13800.000000	36.066
14000.000000	35.841
14300.000000	35.627
14500.000000	35.576
14750.000000	35.638
15000.000000	35.874
15250.000000	36.345
15500.000000	37.111
15750.000000	38.193
16000.000000	39.548
16250.000000	41.023
16500.000000	42.352
16750.000000	43.237
17000.000000	43.455
17250.000000	42.935
17500.000000	41.777
17750.000000	40.208
18000.000000	38.483
18250.000000	36.829
18500.000000	35.400
18750.000000	34.278
19000.000000	33.473
19250.000000	32.944
19500.000000	32.624
19750.000000	32.448
