* Measurement data measured by REW V5.31.1
* Source: Microphone (4- USB Audio Device), MICROPHONE (Master Volume), R, volume: 0.250
* Format: 256k Log Swept Sine, 1 sweep at -12.0 dBFS with no timing reference
* Dated: 28-Jun-2024 11:21:13
* REW Settings:
*  C-weighting compensation: Off
*  Target level: 75.0 dB
* Note: 
* Measurement: QCY Melobuds Pro ANC
* Smoothing: 1/12 octave
* Frequency Step: 1/48 octave
* Start Frequency: 20.300 Hz
*
* Freq(Hz)	SPL(dB)	Phase(degrees)
20.299999	75.055	173.1147
20.600000	75.227	171.9999
20.900000	75.446	170.5452
21.200001	75.685	168.9053
21.400000	75.851	167.7431
21.799999	76.193	165.3050
22.000000	76.369	164.0494
22.400000	76.727	161.5159
22.700001	76.999	159.6353
23.000000	77.267	157.8034
23.299999	77.528	156.0411
23.600000	77.779	154.3602
24.000000	78.093	152.2455
24.299999	78.312	150.7396
24.700001	78.584	148.8006
25.000000	78.774	147.3689
25.400000	79.011	145.4544
25.799999	79.235	143.5136
26.200001	79.448	141.5470
26.500000	79.604	140.0652
26.900000	79.808	138.0970
27.200001	79.958	136.6355
27.600000	80.153	134.7132
28.000000	80.340	132.8208
28.500000	80.561	130.4864
29.000000	80.769	128.1644
29.500000	80.971	125.8318
30.000000	81.169	123.4835
30.400000	81.327	121.6095
30.700001	81.444	120.2221
31.100000	81.598	118.4162
31.500000	81.749	116.6742
32.000000	81.931	114.5841
32.500000	82.102	112.5587
33.000000	82.260	110.5551
33.500000	82.402	108.5493
34.000000	82.530	106.5457
34.500000	82.649	104.5651
35.000000	82.762	102.6261
35.500000	82.873	100.7341
36.000000	82.981	98.8802
36.500000	83.081	97.0495
37.000000	83.170	95.2317
37.500000	83.248	93.4296
38.200001	83.344	90.9580
38.700001	83.411	89.2417
39.500000	83.525	86.5674
40.000000	83.599	84.9352
40.599998	83.680	83.0399
41.200001	83.751	81.2422
41.799999	83.814	79.5315
42.500000	83.879	77.5778
43.099998	83.929	75.8964
43.700001	83.974	74.2110
44.400002	84.026	72.2657
45.000000	84.071	70.6354
45.500000	84.105	69.3159
46.200001	84.145	67.5419
46.799999	84.175	66.0780
47.500000	84.206	64.3994
48.200001	84.234	62.7356
48.700001	84.251	61.5664
49.400002	84.270	59.9758
50.000000	84.281	58.6605
50.799999	84.289	56.9621
51.500000	84.289	55.5132
52.200001	84.286	54.0981
53.000000	84.281	52.5306
53.799999	84.280	50.9952
54.500000	84.279	49.6453
55.200001	84.276	48.2864
56.000000	84.268	46.7568
57.000000	84.251	44.9184
58.000000	84.228	43.1515
59.000000	84.201	41.4543
60.000000	84.180	39.8374
60.799999	84.167	38.5909
61.500000	84.154	37.5234
62.200001	84.139	36.4714
63.000000	84.119	35.2869
64.000000	84.092	33.8412
65.000000	84.063	32.4334
66.000000	84.029	31.0399
67.000000	83.988	29.6535
68.000000	83.942	28.3025
69.000000	83.896	27.0120
70.000000	83.853	25.7822
71.000000	83.813	24.6085
72.000000	83.775	23.4880
73.000000	83.736	22.4084
74.000000	83.692	21.3512
75.000000	83.644	20.3074
76.199997	83.584	19.0716
77.500000	83.517	17.7542
78.800003	83.450	16.4442
80.000000	83.388	15.2530
81.199997	83.328	14.1221
82.500000	83.266	12.9563
83.800003	83.207	11.8247
85.000000	83.153	10.8010
86.199997	83.096	9.7744
87.500000	83.025	8.6549
88.500000	82.968	7.8219
90.000000	82.879	6.6573
91.199997	82.807	5.7749
92.500000	82.729	4.8534
93.800003	82.656	3.9472
95.000000	82.593	3.0716
96.199997	82.529	2.1548
97.500000	82.458	1.1699
98.800003	82.385	0.2486
100.000000	82.319	-0.5322
101.500000	82.236	-1.4608
103.000000	82.142	-2.4068
104.400002	82.042	-3.3014
106.000000	81.926	-4.2711
107.500000	81.825	-5.1060
109.000000	81.731	-5.9077
110.599998	81.633	-6.7766
112.000000	81.542	-7.5491
113.800003	81.411	-8.5396
115.000000	81.319	-9.1874
117.199997	81.154	-10.3069
118.000000	81.094	-10.6839
120.599998	80.905	-11.8245
122.000000	80.810	-12.4170
124.099998	80.672	-13.2848
125.000000	80.612	-13.6353
126.500000	80.505	-14.1738
128.000000	80.388	-14.6623
131.500000	80.109	-15.7464
132.000000	80.070	-15.8977
134.000000	79.910	-16.4857
136.000000	79.741	-17.0767
138.000000	79.568	-17.6904
140.000000	79.398	-18.2715
143.000000	79.151	-19.0141
145.000000	78.984	-19.4180
147.500000	78.774	-19.8232
150.000000	78.569	-20.1643
152.500000	78.362	-20.4945
155.000000	78.143	-20.8046
157.500000	77.914	-21.0298
160.000000	77.684	-21.1728
162.500000	77.450	-21.2520
165.000000	77.212	-21.2345
167.500000	76.974	-21.1267
170.000000	76.743	-20.9611
172.500000	76.518	-20.7660
175.000000	76.295	-20.5168
177.500000	76.073	-20.1772
180.000000	75.856	-19.7195
182.500000	75.647	-19.1414
185.000000	75.449	-18.4704
187.500000	75.262	-17.7398
190.000000	75.081	-16.9716
192.500000	74.906	-16.1595
195.000000	74.739	-15.3090
197.500000	74.584	-14.4196
200.000000	74.442	-13.4779
203.000000	74.290	-12.2764
206.000000	74.156	-10.9973
209.000000	74.042	-9.6656
212.000000	73.942	-8.3167
214.000000	73.883	-7.4200
218.000000	73.782	-5.6397
220.000000	73.742	-4.7448
224.000000	73.687	-2.9352
227.000000	73.664	-1.5885
230.000000	73.651	-0.2732
233.000000	73.647	1.0037
236.000000	73.653	2.2362
240.000000	73.672	3.7909
243.000000	73.690	4.8729
247.000000	73.723	6.1986
250.000000	73.761	7.1239
254.000000	73.827	8.2868
258.000000	73.904	9.3954
262.000000	73.984	10.4347
265.000000	74.045	11.1410
269.000000	74.127	11.9663
272.000000	74.191	12.5124
276.000000	74.279	13.1903
280.000000	74.365	13.8489
285.000000	74.470	14.6522
290.000000	74.584	15.4303
295.000000	74.710	16.1648
300.000000	74.842	16.7998
304.000000	74.951	17.2032
307.000000	75.034	17.4393
311.000000	75.146	17.6862
315.000000	75.256	17.8854
320.000000	75.386	18.0713
325.000000	75.506	18.1806
330.000000	75.618	18.2339
335.000000	75.727	18.2640
340.000000	75.832	18.3072
345.000000	75.936	18.3754
350.000000	76.038	18.4321
355.000000	76.132	18.4446
360.000000	76.211	18.4237
365.000000	76.282	18.3906
370.000000	76.352	18.3324
375.000000	76.425	18.2312
382.000000	76.520	18.0089
387.000000	76.576	17.8162
395.000000	76.659	17.4361
400.000000	76.717	17.1418
406.000000	76.792	16.7627
412.000000	76.862	16.3544
418.000000	76.918	15.9206
425.000000	76.964	15.4195
431.000000	76.997	14.9910
437.000000	77.030	14.5412
444.000000	77.067	14.0132
450.000000	77.094	13.5750
455.000000	77.116	13.2179
462.000000	77.140	12.7558
468.000000	77.145	12.4110
475.000000	77.132	12.0344
482.000000	77.117	11.6331
487.000000	77.111	11.3429
494.000000	77.105	10.9863
500.000000	77.096	10.7506
508.000000	77.081	10.5129
515.000000	77.070	10.3389
522.000000	77.058	10.1680
530.000000	77.038	9.9434
538.000000	77.010	9.6939
545.000000	76.979	9.5098
552.000000	76.944	9.3843
560.000000	76.897	9.2790
570.000000	76.829	9.1602
580.000000	76.746	9.0473
590.000000	76.648	8.9852
600.000000	76.550	8.9910
608.000000	76.480	9.0199
615.000000	76.419	9.0707
622.000000	76.356	9.1602
630.000000	76.280	9.3324
640.000000	76.186	9.6497
650.000000	76.097	10.0218
660.000000	76.006	10.4415
670.000000	75.909	10.9803
680.000000	75.814	11.6730
690.000000	75.723	12.4695
700.000000	75.637	13.3314
710.000000	75.555	14.2643
720.000000	75.468	15.2687
730.000000	75.372	16.3154
740.000000	75.279	17.3667
750.000000	75.190	18.4291
762.000000	75.091	19.7395
775.000000	74.998	21.2139
788.000000	74.919	22.7193
800.000000	74.849	24.0930
812.000000	74.784	25.3780
825.000000	74.732	26.6539
838.000000	74.694	27.9009
850.000000	74.667	29.0791
862.000000	74.650	30.2651
875.000000	74.648	31.5466
885.000000	74.654	32.5266
900.000000	74.674	33.9439
912.000000	74.701	34.9814
925.000000	74.738	36.0229
938.000000	74.782	37.0338
950.000000	74.835	37.9962
962.000000	74.905	39.0098
975.000000	74.997	40.1189
988.000000	75.097	41.1712
1000.000000	75.189	42.0646
1015.000000	75.305	43.0476
1030.000000	75.426	43.8705
1044.000000	75.548	44.5303
1060.000000	75.696	45.1691
1075.000000	75.840	45.6073
1090.000000	75.980	45.8643
1106.000000	76.122	45.9842
1120.000000	76.245	46.0262
1138.000000	76.411	46.0808
1150.000000	76.525	46.1389
1172.000000	76.729	46.2542
1180.000000	76.797	46.2762
1206.000000	76.998	46.2174
1220.000000	77.092	46.1210
1241.000000	77.215	45.9243
1250.000000	77.263	45.8301
1265.000000	77.337	45.6782
1280.000000	77.405	45.5481
1315.000000	77.549	45.3658
1320.000000	77.568	45.3515
1340.000000	77.640	45.2918
1360.000000	77.709	45.1820
1380.000000	77.773	45.0002
1400.000000	77.828	44.7559
1430.000000	77.899	44.3460
1450.000000	77.945	44.0989
1475.000000	78.001	43.9058
1500.000000	78.060	43.8927
1525.000000	78.128	43.9933
1550.000000	78.207	44.2001
1575.000000	78.292	44.6033
1600.000000	78.383	45.2400
1625.000000	78.483	46.0789
1650.000000	78.595	47.0690
1675.000000	78.715	48.1789
1700.000000	78.834	49.4026
1725.000000	78.955	50.7266
1750.000000	79.090	52.0320
1775.000000	79.237	53.0659
1800.000000	79.382	53.6366
1825.000000	79.519	53.7524
1850.000000	79.655	53.5688
1875.000000	79.796	53.2472
1900.000000	79.941	52.8580
1925.000000	80.091	52.4162
1950.000000	80.245	51.9524
1975.000000	80.402	51.5103
2000.000000	80.565	51.1035
2030.000000	80.768	50.6411
2060.000000	80.983	50.2099
2090.000000	81.205	49.8079
2120.000000	81.424	49.4005
2140.000000	81.567	49.1084
2180.000000	81.855	48.4179
2200.000000	82.003	48.0492
2240.000000	82.309	47.3835
2270.000000	82.548	46.9192
2300.000000	82.790	46.3640
2330.000000	83.029	45.6115
2360.000000	83.265	44.5935
2400.000000	83.583	42.7657
2430.000000	83.822	41.0620
2470.000000	84.139	38.5067
2500.000000	84.378	36.5549
2540.000000	84.701	34.1490
2580.000000	85.028	32.1076
2620.000000	85.356	30.4642
2650.000000	85.599	29.4506
2690.000000	85.917	28.3212
2720.000000	86.152	27.5919
2760.000000	86.456	26.6318
2800.000000	86.736	25.4462
2850.000000	87.046	23.4379
2900.000000	87.332	21.0731
2950.000000	87.598	18.6345
3000.000000	87.826	16.0990
3040.000000	87.970	13.9405
3070.000000	88.058	12.2448
3110.000000	88.151	9.9206
3150.000000	88.214	7.5752
3200.000000	88.255	4.7130
3250.000000	88.264	2.0920
3300.000000	88.247	-0.1591
3350.000000	88.205	-2.0296
3400.000000	88.141	-3.6161
3450.000000	88.051	-4.9671
3500.000000	87.943	-5.9368
3550.000000	87.826	-6.3508
3600.000000	87.705	-6.2068
3650.000000	87.583	-5.6984
3700.000000	87.454	-5.1445
3750.000000	87.321	-4.8199
3820.000000	87.133	-4.9480
3870.000000	86.999	-5.3795
3950.000000	86.785	-6.3922
4000.000000	86.655	-7.1396
4060.000000	86.514	-7.8599
4120.000000	86.403	-8.0690
4180.000000	86.318	-7.7200
4250.000000	86.250	-6.7707
4310.000000	86.212	-5.7193
4370.000000	86.190	-4.6671
4440.000000	86.189	-3.3716
4500.000000	86.222	-2.0171
4550.000000	86.273	-0.7163
4620.000000	86.376	1.1334
4680.000000	86.492	2.5077
4750.000000	86.658	3.7616
4820.000000	86.850	4.6665
4870.000000	86.999	5.0520
4940.000000	87.212	5.1327
5000.000000	87.386	4.8048
5080.000000	87.587	4.0199
5150.000000	87.710	3.0558
5220.000000	87.756	1.6041
5300.000000	87.687	-0.9219
5380.000000	87.474	-4.3971
5450.000000	87.170	-7.9509
5520.000000	86.778	-11.5599
5600.000000	86.256	-15.3573
5700.000000	85.550	-19.3303
5800.000000	84.835	-22.4229
5900.000000	84.156	-24.8843
6000.000000	83.537	-26.9246
6080.000000	83.091	-28.1112
6150.000000	82.741	-28.6402
6220.000000	82.429	-28.6763
6300.000000	82.115	-28.2519
6400.000000	81.781	-27.2640
6500.000000	81.511	-25.8224
6600.000000	81.317	-23.9029
6700.000000	81.199	-21.8387
6800.000000	81.158	-20.1258
6900.000000	81.195	-18.9717
7000.000000	81.320	-18.0769
7100.000000	81.543	-16.9826
7200.000000	81.861	-15.6552
7300.000000	82.267	-14.4153
7400.000000	82.749	-13.7362
7500.000000	83.286	-14.2094
7620.000000	83.946	-16.9355
7750.000000	84.569	-22.5523
7880.000000	84.951	-30.1725
8000.000000	84.961	-38.1471
8120.000000	84.565	-46.3715
8250.000000	83.683	-54.6862
8380.000000	82.426	-61.4013
8500.000000	81.062	-65.5021
8620.000000	79.615	-67.5484
8750.000000	78.048	-67.9514
8850.000000	76.885	-67.2459
9000.000000	75.258	-64.6197
9120.000000	74.073	-61.2702
9250.000000	72.912	-56.7771
9380.000000	71.868	-51.8928
9500.000000	70.996	-47.5465
9620.000000	70.198	-43.7872
9750.000000	69.407	-40.3454
9880.000000	68.692	-36.9775
10000.000000	68.095	-33.3468
10150.000000	67.424	-27.6600
10300.000000	66.819	-20.9848
10440.000000	66.298	-14.4648
10600.000000	65.756	-7.0007
10750.000000	65.308	-0.0727
10900.000000	64.929	6.5808
11060.000000	64.612	12.9886
11200.000000	64.411	17.9388
11380.000000	64.255	23.8191
11500.000000	64.212	27.7971
11720.000000	64.268	35.9245
11800.000000	64.331	39.1905
12060.000000	64.686	50.3034
12200.000000	64.976	56.1553
12410.000000	65.563	64.5500
12500.000000	65.881	68.1219
12650.000000	66.521	74.2592
12800.000000	67.323	80.6223
13150.000000	69.825	92.5419
13200.000000	70.234	93.4428
13400.000000	71.881	94.3741
13600.000000	73.317	90.9737
13800.000000	74.220	83.9505
14000.000000	74.350	75.1780
14300.000000	73.064	63.3818
14500.000000	71.493	57.5953
14750.000000	69.193	52.8602
15000.000000	66.934	51.5144
15250.000000	64.977	53.9453
15500.000000	63.383	59.1470
15750.000000	62.077	65.6930
16000.000000	60.915	72.9750
16250.000000	59.757	81.0195
16500.000000	58.500	89.5340
16750.000000	57.114	98.2071
17000.000000	55.622	106.6319
17250.000000	54.015	113.3600
17500.000000	52.229	116.7656
17750.000000	50.162	115.7716
18000.000000	47.847	108.3119
18250.000000	45.900	78.9310
18500.000000	45.574	-7.8566
18750.000000	46.771	-35.9396
19000.000000	48.230	-44.2637
19250.000000	49.352	-47.6623
19500.000000	50.058	-48.8975
19750.000000	50.440	-49.2635
20000.000000	50.594	-49.3834
