* Measurement data measured by REW V5.31.1
* Source: Microphone (4- USB Audio Device), MICROPHONE (Master Volume), R, volume: 0.250
* Format: 256k Log Swept Sine, 1 sweep at -12.0 dBFS with no timing reference
* Dated: 20-May-2024 11:19:50
* REW Settings:
*  C-weighting compensation: Off
*  Target level: 75.0 dB
* Note: 
* Measurement: QCY HT10 (ANC off)
* Smoothing: 1/12 octave
* Frequency Step: 1/48 octave
* Start Frequency: 20.300 Hz
*
* Freq(Hz)	SPL(dB)	Phase(degrees)
20.299999	59.105	-119.6224
20.600000	59.336	-120.6779
20.900000	59.636	-121.8378
21.200001	59.975	-122.9223
21.400000	60.218	-123.6109
21.799999	60.738	-125.0295
22.000000	61.009	-125.8134
22.400000	61.550	-127.6015
22.700001	61.944	-129.1344
23.000000	62.320	-130.7964
23.299999	62.675	-132.5438
23.600000	63.010	-134.3356
24.000000	63.430	-136.7374
24.299999	63.725	-138.5159
24.700001	64.092	-140.8140
25.000000	64.348	-142.4541
25.400000	64.664	-144.4913
25.799999	64.959	-146.3304
26.200001	65.243	-147.9718
26.500000	65.456	-149.0916
26.900000	65.744	-150.4767
27.200001	65.966	-151.4626
27.600000	66.269	-152.7383
28.000000	66.580	-153.9890
28.500000	66.974	-155.5290
29.000000	67.370	-157.0478
29.500000	67.766	-158.5527
30.000000	68.159	-160.0516
30.400000	68.473	-161.2498
30.700001	68.708	-162.1491
31.100000	69.021	-163.3501
31.500000	69.331	-164.5531
32.000000	69.710	-166.0546
32.500000	70.077	-167.5463
33.000000	70.428	-169.0312
33.500000	70.765	-170.5309
34.000000	71.086	-172.0718
34.500000	71.391	-173.6626
35.000000	71.680	-175.2876
35.500000	71.952	-176.9246
36.000000	72.210	-178.5689
36.500000	72.451	179.7629
37.000000	72.675	178.0487
37.500000	72.881	176.2767
38.200001	73.150	173.7042
38.700001	73.338	171.8179
39.500000	73.650	168.7780
40.000000	73.855	166.9089
40.599998	74.109	164.7208
41.200001	74.363	162.5712
41.799999	74.608	160.4305
42.500000	74.874	157.9629
43.099998	75.088	155.9272
43.700001	75.297	153.9872
44.400002	75.535	151.8084
45.000000	75.724	149.9719
45.500000	75.869	148.4563
46.200001	76.058	146.3748
46.799999	76.219	144.6436
47.500000	76.415	142.6737
48.200001	76.613	140.7139
48.700001	76.742	139.3069
49.400002	76.891	137.3580
50.000000	76.995	135.7536
50.799999	77.126	133.7292
51.500000	77.253	132.0114
52.200001	77.389	130.2919
53.000000	77.542	128.3243
53.799999	77.681	126.3852
54.500000	77.790	124.7357
55.200001	77.890	123.1447
56.000000	77.997	121.3948
57.000000	78.121	119.2727
58.000000	78.237	117.2091
59.000000	78.345	115.2672
60.000000	78.452	113.4680
60.799999	78.536	112.0668
61.500000	78.607	110.8212
62.200001	78.672	109.5518
63.000000	78.739	108.1032
64.000000	78.814	106.3621
65.000000	78.888	104.7046
66.000000	78.966	103.0952
67.000000	79.038	101.5564
68.000000	79.102	100.1162
69.000000	79.159	98.7353
70.000000	79.212	97.3498
71.000000	79.258	95.9424
72.000000	79.297	94.5445
73.000000	79.333	93.1771
74.000000	79.370	91.8404
75.000000	79.409	90.5446
76.199997	79.455	89.0667
77.500000	79.495	87.5719
78.800003	79.517	86.1469
80.000000	79.534	84.8348
81.199997	79.558	83.5408
82.500000	79.586	82.2106
83.800003	79.608	80.8836
85.000000	79.625	79.5835
86.199997	79.641	78.2843
87.500000	79.654	76.9908
88.500000	79.656	76.0777
90.000000	79.654	74.7726
91.199997	79.652	73.7609
92.500000	79.651	72.7019
93.800003	79.648	71.6609
95.000000	79.640	70.6929
96.199997	79.629	69.7244
97.500000	79.614	68.7083
98.800003	79.595	67.7347
100.000000	79.571	66.8618
101.500000	79.533	65.8102
103.000000	79.490	64.7894
104.400002	79.451	63.8652
106.000000	79.414	62.9049
107.500000	79.376	62.1149
109.000000	79.333	61.3661
110.599998	79.285	60.5771
112.000000	79.241	59.9153
113.800003	79.177	59.0966
115.000000	79.131	58.5430
117.199997	79.050	57.5312
118.000000	79.020	57.1818
120.599998	78.907	56.0756
122.000000	78.838	55.4882
124.099998	78.733	54.6812
125.000000	78.688	54.3677
126.500000	78.613	53.8831
128.000000	78.531	53.4345
131.500000	78.314	52.4814
132.000000	78.281	52.3630
134.000000	78.151	51.9466
136.000000	78.023	51.6099
138.000000	77.898	51.3464
140.000000	77.771	51.1274
143.000000	77.584	50.8640
145.000000	77.462	50.7517
147.500000	77.304	50.6909
150.000000	77.132	50.7085
152.500000	76.956	50.8123
155.000000	76.782	51.0291
157.500000	76.609	51.3504
160.000000	76.424	51.7180
162.500000	76.227	52.1388
165.000000	76.030	52.6359
167.500000	75.836	53.2224
170.000000	75.646	53.9233
172.500000	75.463	54.7433
175.000000	75.288	55.6418
177.500000	75.119	56.5528
180.000000	74.952	57.4760
182.500000	74.785	58.4800
185.000000	74.621	59.6403
187.500000	74.459	60.9392
190.000000	74.310	62.3060
192.500000	74.181	63.7085
195.000000	74.072	65.1312
197.500000	73.979	66.5644
200.000000	73.896	68.0293
203.000000	73.798	69.8596
206.000000	73.700	71.7661
209.000000	73.609	73.7468
212.000000	73.533	75.7582
214.000000	73.493	77.0927
218.000000	73.434	79.7495
220.000000	73.416	81.0805
224.000000	73.407	83.7513
227.000000	73.421	85.7488
230.000000	73.444	87.7184
233.000000	73.477	89.6579
236.000000	73.522	91.5807
240.000000	73.602	94.0998
243.000000	73.671	95.9164
247.000000	73.763	98.2363
250.000000	73.833	99.8957
254.000000	73.930	101.9658
258.000000	74.030	103.8535
262.000000	74.135	105.5461
265.000000	74.217	106.6740
269.000000	74.328	107.9997
272.000000	74.413	108.8934
276.000000	74.531	110.0060
280.000000	74.653	111.0654
285.000000	74.795	112.2951
290.000000	74.924	113.3887
295.000000	75.042	114.3998
300.000000	75.139	115.4070
304.000000	75.203	116.2230
307.000000	75.245	116.8388
311.000000	75.298	117.6810
315.000000	75.354	118.5705
320.000000	75.436	119.7585
325.000000	75.535	120.9623
330.000000	75.648	122.0477
335.000000	75.761	123.0219
340.000000	75.865	123.9397
345.000000	75.952	124.8118
350.000000	76.027	125.6577
355.000000	76.095	126.4799
360.000000	76.156	127.3055
365.000000	76.213	128.1502
370.000000	76.269	129.0007
375.000000	76.324	129.8496
382.000000	76.401	131.0367
387.000000	76.461	131.9363
395.000000	76.556	133.4565
400.000000	76.609	134.3805
406.000000	76.674	135.4584
412.000000	76.739	136.5643
418.000000	76.800	137.6971
425.000000	76.869	139.0013
431.000000	76.923	140.0653
437.000000	76.970	141.0380
444.000000	77.019	142.0750
450.000000	77.061	142.9552
455.000000	77.095	143.7087
462.000000	77.141	144.7668
468.000000	77.184	145.6213
475.000000	77.242	146.5078
482.000000	77.298	147.3436
487.000000	77.332	147.9644
494.000000	77.371	148.8803
500.000000	77.399	149.6847
508.000000	77.436	150.7425
515.000000	77.472	151.6414
522.000000	77.514	152.5205
530.000000	77.569	153.5835
538.000000	77.625	154.7805
545.000000	77.674	155.9020
552.000000	77.728	157.0345
560.000000	77.795	158.3211
570.000000	77.869	159.9215
580.000000	77.934	161.4704
590.000000	77.999	162.9189
600.000000	78.063	164.2865
608.000000	78.114	165.3341
615.000000	78.157	166.2112
622.000000	78.192	167.0659
630.000000	78.221	168.0185
640.000000	78.238	169.1662
650.000000	78.242	170.3072
660.000000	78.246	171.4868
670.000000	78.261	172.6704
680.000000	78.280	173.7953
690.000000	78.288	174.8456
700.000000	78.275	175.8520
710.000000	78.243	176.8607
720.000000	78.204	177.9195
730.000000	78.162	179.0871
740.000000	78.119	-179.6233
750.000000	78.084	-178.2377
762.000000	78.057	-176.4799
775.000000	78.033	-174.4804
788.000000	77.999	-172.4174
800.000000	77.951	-170.5610
812.000000	77.900	-168.7874
825.000000	77.846	-166.9015
838.000000	77.795	-165.0353
850.000000	77.746	-163.2982
862.000000	77.694	-161.5445
875.000000	77.637	-159.6782
885.000000	77.595	-158.2926
900.000000	77.531	-156.2187
912.000000	77.479	-154.4641
925.000000	77.439	-152.4364
938.000000	77.421	-150.3038
950.000000	77.416	-148.2858
962.000000	77.416	-146.2798
975.000000	77.422	-144.1695
988.000000	77.437	-142.1169
1000.000000	77.460	-140.2092
1015.000000	77.500	-137.7189
1030.000000	77.553	-135.1041
1044.000000	77.606	-132.5991
1060.000000	77.668	-129.6979
1075.000000	77.737	-126.9875
1090.000000	77.827	-124.3377
1106.000000	77.941	-121.6613
1120.000000	78.042	-119.5334
1138.000000	78.159	-117.1288
1150.000000	78.228	-115.6854
1172.000000	78.347	-113.2640
1180.000000	78.391	-112.4311
1206.000000	78.546	-109.8365
1220.000000	78.637	-108.4862
1241.000000	78.776	-106.4534
1250.000000	78.836	-105.5649
1265.000000	78.934	-104.0620
1280.000000	79.027	-102.5542
1315.000000	79.198	-99.2604
1320.000000	79.216	-98.8352
1340.000000	79.277	-97.2420
1360.000000	79.325	-95.7556
1380.000000	79.372	-94.2908
1400.000000	79.423	-92.8177
1430.000000	79.504	-90.6156
1450.000000	79.563	-89.1212
1475.000000	79.651	-87.2087
1500.000000	79.754	-85.3741
1525.000000	79.859	-83.7401
1550.000000	79.954	-82.3204
1575.000000	80.043	-81.0814
1600.000000	80.135	-79.8777
1625.000000	80.235	-78.6710
1650.000000	80.336	-77.4989
1675.000000	80.434	-76.3068
1700.000000	80.531	-75.0303
1725.000000	80.629	-73.6351
1750.000000	80.729	-72.1274
1775.000000	80.826	-70.5559
1800.000000	80.920	-68.9717
1825.000000	81.017	-67.3950
1850.000000	81.116	-65.8556
1875.000000	81.213	-64.4260
1900.000000	81.305	-63.1394
1925.000000	81.392	-61.9512
1950.000000	81.476	-60.7788
1975.000000	81.557	-59.5647
2000.000000	81.634	-58.2922
2030.000000	81.716	-56.7168
2060.000000	81.784	-55.1413
2090.000000	81.848	-53.5785
2120.000000	81.919	-52.0909
2140.000000	81.979	-51.2362
2180.000000	82.110	-50.0761
2200.000000	82.161	-49.7135
2240.000000	82.211	-49.1116
2270.000000	82.213	-48.6236
2300.000000	82.205	-48.0304
2330.000000	82.193	-47.3102
2360.000000	82.170	-46.5396
2400.000000	82.106	-45.5901
2430.000000	82.038	-44.9441
2470.000000	81.933	-44.0757
2500.000000	81.846	-43.3750
2540.000000	81.718	-42.4162
2580.000000	81.570	-41.5506
2620.000000	81.401	-40.8373
2650.000000	81.264	-40.3341
2690.000000	81.073	-39.5492
2720.000000	80.925	-38.8286
2760.000000	80.721	-37.7291
2800.000000	80.515	-36.5568
2850.000000	80.262	-35.0266
2900.000000	80.010	-33.2771
2950.000000	79.755	-31.3362
3000.000000	79.500	-29.3861
3040.000000	79.302	-27.9032
3070.000000	79.159	-26.8657
3110.000000	78.977	-25.5802
3150.000000	78.807	-24.3480
3200.000000	78.602	-22.7383
3250.000000	78.402	-20.9146
3300.000000	78.216	-18.7598
3350.000000	78.050	-16.2628
3400.000000	77.901	-13.5038
3450.000000	77.769	-10.5760
3500.000000	77.654	-7.6074
3550.000000	77.557	-4.7840
3600.000000	77.475	-2.2955
3650.000000	77.397	-0.1962
3700.000000	77.318	1.7035
3750.000000	77.244	3.6171
3820.000000	77.158	6.3333
3870.000000	77.100	8.1554
3950.000000	77.007	10.6875
4000.000000	76.952	12.0692
4060.000000	76.891	13.6000
4120.000000	76.834	14.9852
4180.000000	76.782	16.2272
4250.000000	76.731	17.6505
4310.000000	76.698	18.9843
4370.000000	76.671	20.4114
4440.000000	76.641	22.1160
4500.000000	76.625	23.7030
4550.000000	76.622	25.1805
4620.000000	76.632	27.4132
4680.000000	76.652	29.3895
4750.000000	76.695	31.6852
4820.000000	76.760	33.8360
4870.000000	76.820	35.2424
4940.000000	76.928	37.1005
5000.000000	77.041	38.6861
5080.000000	77.222	40.9145
5150.000000	77.417	42.9888
5220.000000	77.650	45.0663
5300.000000	77.960	47.1781
5380.000000	78.312	48.6694
5450.000000	78.643	49.1724
5520.000000	78.980	48.7030
5600.000000	79.356	46.8471
5700.000000	79.759	42.6269
5800.000000	80.032	36.8520
5900.000000	80.133	30.3129
6000.000000	80.036	23.5966
6080.000000	79.822	18.4656
6150.000000	79.555	14.5160
6220.000000	79.236	11.3206
6300.000000	78.831	8.6683
6400.000000	78.295	6.6360
6500.000000	77.762	5.7000
6600.000000	77.257	5.6756
6700.000000	76.804	6.4529
6800.000000	76.429	7.8773
6900.000000	76.192	9.9261
7000.000000	76.175	12.5872
7100.000000	76.434	15.5660
7200.000000	76.992	18.2222
7300.000000	77.818	19.5718
7400.000000	78.825	18.7883
7500.000000	79.894	15.6981
7620.000000	81.070	9.2447
7750.000000	81.989	-0.3138
7880.000000	82.392	-11.1164
8000.000000	82.272	-21.0800
8120.000000	81.735	-30.4511
8250.000000	80.815	-39.3316
8380.000000	79.710	-46.2186
8500.000000	78.639	-50.4460
8620.000000	77.588	-52.5928
8750.000000	76.510	-53.0644
8850.000000	75.726	-52.7070
9000.000000	74.626	-51.6479
9120.000000	73.821	-50.1963
9250.000000	73.036	-47.6083
9380.000000	72.341	-43.9442
9500.000000	71.766	-40.1204
9620.000000	71.248	-36.4230
9750.000000	70.746	-32.7326
9880.000000	70.300	-29.1107
10000.000000	69.927	-25.4711
10150.000000	69.500	-20.1005
10300.000000	69.118	-13.7821
10440.000000	68.814	-7.4215
10600.000000	68.565	-0.0428
10750.000000	68.459	6.6623
10900.000000	68.486	12.7965
11060.000000	68.655	18.4376
11200.000000	68.900	22.4666
11380.000000	69.309	26.3099
11500.000000	69.630	28.0056
11720.000000	70.310	29.1212
11800.000000	70.581	28.8999
12060.000000	71.479	26.3165
12200.000000	71.893	23.8271
12410.000000	72.248	18.5998
12500.000000	72.252	15.8875
12650.000000	72.024	11.1587
12800.000000	71.508	6.7989
13150.000000	69.525	0.5424
13200.000000	69.203	0.1775
13400.000000	67.971	-0.0914
13600.000000	66.957	0.7065
13800.000000	66.186	1.4362
14000.000000	65.529	1.5540
14300.000000	64.412	0.3657
14500.000000	63.469	-1.1573
14750.000000	62.065	-3.2221
15000.000000	60.464	-4.6797
15250.000000	58.731	-4.9199
15500.000000	56.923	-3.0236
15750.000000	55.082	2.0583
16000.000000	53.201	10.1059
16250.000000	51.212	20.3483
16500.000000	49.115	33.7896
16750.000000	47.286	55.8226
17000.000000	46.864	95.2511
17250.000000	48.433	129.4714
17500.000000	50.733	143.0993
17750.000000	52.756	147.2210
18000.000000	54.227	147.3403
18250.000000	55.111	145.4296
18500.000000	55.462	142.3269
18750.000000	55.387	138.8631
19000.000000	54.999	135.7339
19250.000000	54.373	133.0983
19500.000000	53.588	131.1182
19750.000000	52.808	129.9486
20000.000000	52.314	129.4752
