* Measurement data measured by REW V5.20.13
* Source: Microphone (2- USB Audio Device), MICROPHONE (Master Volume), L, volume: 0.250. Timing signal peak level -35.1 dBFS, measurement signal peak level -35.1 dBFS
* Format: 256k Log Swept Sine, 1 sweep at -12.0 dBFS using an acoustic timing reference
* Dated: 04-May-2023 11:35:37
* REW Settings:
*  C-weighting compensation: Off
*  Target level: 75.0 dB
* Note: Delay -11.4996 ms (-3.944 m, -(12 ft 11.3 in)) using IR start time relative to Acoustic reference played from HEADPHONE L with no timing offset
* Measurement: QCY Ailypods L
* Smoothing: 1/12 octave
* Frequency Step: 1/48 octave
* Start Frequency: 20.000 Hz
*
* Freq(Hz)	SPL(dB)	Phase(degrees)
20.000000	46.891	-130.7201
20.299999	46.548	-119.4447
20.600000	46.020	-107.4576
20.900000	45.346	-93.7659
21.200001	44.684	-77.7744
21.400000	44.431	-66.2856
21.799999	44.501	-43.4985
22.000000	44.767	-33.3309
22.400000	45.344	-17.1440
22.700001	45.498	-8.0026
23.000000	45.276	0.5316
23.299999	44.707	10.4652
23.600000	43.906	22.7251
24.000000	42.793	42.5542
24.299999	42.186	58.7349
24.700001	41.810	80.1616
25.000000	41.758	95.3885
25.400000	41.806	114.4376
25.799999	41.856	132.3948
26.200001	41.857	149.7937
26.500000	41.849	162.7605
26.900000	41.892	179.8823
27.200001	41.983	-167.8268
27.600000	42.109	-152.8088
28.000000	42.077	-139.3289
28.500000	41.650	-123.0010
29.000000	40.870	-105.2888
29.500000	39.967	-86.2147
30.000000	39.048	-66.8201
30.400000	38.212	-50.8314
30.700001	37.470	-37.8754
31.100000	36.337	-18.3071
31.500000	35.194	4.0801
32.000000	34.202	34.2090
32.500000	33.955	63.2229
33.000000	34.089	89.2386
33.500000	34.259	113.2483
34.000000	34.476	136.4321
34.500000	34.793	158.4146
35.000000	35.100	178.5442
35.500000	35.298	-162.8429
36.000000	35.451	-145.2622
36.500000	35.648	-129.4874
37.000000	35.767	-117.0490
37.500000	35.543	-108.1375
38.200001	34.288	-98.4121
38.700001	32.721	-92.3693
39.500000	29.785	-91.9285
40.000000	28.424	-101.7081
40.599998	28.003	-120.4675
41.200001	28.888	-137.7200
41.799999	30.292	-147.5065
42.500000	31.709	-149.5468
43.099998	32.566	-145.9404
43.700001	33.293	-139.8687
44.400002	34.120	-133.8373
45.000000	34.621	-132.8876
45.500000	34.719	-135.2802
46.200001	34.349	-140.8188
46.799999	33.798	-144.9523
47.500000	33.381	-147.8362
48.200001	33.497	-148.9541
48.700001	33.868	-148.8440
49.400002	34.628	-147.8967
50.000000	35.325	-147.4236
50.799999	36.000	-148.8881
51.500000	36.153	-151.8868
52.200001	35.911	-154.5798
53.000000	35.498	-155.3461
53.799999	35.446	-154.5248
54.500000	35.705	-154.1797
55.200001	36.003	-154.0488
56.000000	36.272	-152.9247
57.000000	36.476	-149.7635
58.000000	36.545	-145.4504
59.000000	36.722	-142.1656
60.000000	37.042	-142.9156
60.799999	37.301	-146.3794
61.500000	37.491	-150.4275
62.200001	37.612	-154.1765
63.000000	37.675	-156.5530
64.000000	37.766	-155.7509
65.000000	37.909	-152.2233
66.000000	38.010	-148.0065
67.000000	38.011	-144.8337
68.000000	37.817	-143.5883
69.000000	37.439	-143.4570
70.000000	37.087	-143.6326
71.000000	36.906	-143.9080
72.000000	36.885	-143.8507
73.000000	36.951	-143.2527
74.000000	37.005	-142.2026
75.000000	36.986	-140.8303
76.199997	36.843	-138.8417
77.500000	36.651	-136.2566
78.800003	36.611	-133.9095
80.000000	36.759	-132.7335
81.199997	37.018	-132.5665
82.500000	37.323	-132.9886
83.800003	37.489	-132.9331
85.000000	37.528	-131.0697
86.199997	37.609	-127.9482
87.500000	37.686	-125.3594
88.500000	37.606	-124.3235
90.000000	37.320	-122.8666
91.199997	37.181	-120.8615
92.500000	37.286	-117.7728
93.800003	37.567	-114.4156
95.000000	37.793	-111.5177
96.199997	37.897	-108.8525
97.500000	37.894	-106.1833
98.800003	37.862	-103.8267
100.000000	37.837	-102.0118
101.500000	37.734	-99.7113
103.000000	37.528	-96.3433
104.400002	37.390	-92.4930
106.000000	37.369	-88.8639
107.500000	37.400	-86.0616
109.000000	37.556	-82.7004
110.599998	37.904	-78.8142
112.000000	38.205	-75.9524
113.800003	38.371	-73.1001
115.000000	38.346	-71.2755
117.199997	38.239	-67.4227
118.000000	38.228	-65.9205
120.599998	38.296	-61.1484
122.000000	38.341	-58.7625
124.099998	38.338	-55.0358
125.000000	38.328	-53.2181
126.500000	38.337	-50.0095
128.000000	38.366	-46.7803
131.500000	38.497	-39.7987
132.000000	38.507	-38.9779
134.000000	38.461	-35.7977
136.000000	38.379	-32.0505
138.000000	38.455	-27.7631
140.000000	38.674	-23.3934
143.000000	38.917	-15.8840
145.000000	38.887	-9.9867
147.500000	38.653	-2.5864
150.000000	38.411	3.4219
152.500000	38.314	7.5391
155.000000	38.362	11.5098
157.500000	38.487	16.3198
160.000000	38.586	22.0042
162.500000	38.650	27.7401
165.000000	38.632	32.8831
167.500000	38.601	37.7987
170.000000	38.659	42.9506
172.500000	38.750	48.7542
175.000000	38.818	55.1471
177.500000	38.883	61.5074
180.000000	38.942	67.2955
182.500000	38.896	72.5952
185.000000	38.723	78.0679
187.500000	38.553	84.0771
190.000000	38.492	90.4712
192.500000	38.468	97.0093
195.000000	38.379	103.7925
197.500000	38.276	110.7759
200.000000	38.260	117.6245
203.000000	38.340	125.5400
206.000000	38.419	133.2812
209.000000	38.478	140.6650
212.000000	38.547	147.6787
214.000000	38.592	152.4580
218.000000	38.676	163.0115
220.000000	38.709	168.6206
224.000000	38.670	179.8940
227.000000	38.597	-171.4258
230.000000	38.586	-162.4780
233.000000	38.598	-153.3545
236.000000	38.579	-144.3855
240.000000	38.555	-133.5520
243.000000	38.613	-126.0559
247.000000	38.793	-116.0010
250.000000	38.924	-108.2544
254.000000	38.970	-97.5503
258.000000	38.897	-86.1174
262.000000	38.969	-74.4436
265.000000	39.211	-66.0437
269.000000	39.650	-55.2949
272.000000	39.922	-47.0879
276.000000	40.108	-35.6150
280.000000	40.164	-24.0002
285.000000	40.282	-10.0771
290.000000	40.490	2.6245
295.000000	40.700	14.8728
300.000000	40.896	27.9802
304.000000	41.039	39.3147
307.000000	41.180	47.9919
311.000000	41.429	59.3030
315.000000	41.677	70.2451
320.000000	41.854	83.9138
325.000000	41.896	98.0264
330.000000	41.933	112.1873
335.000000	42.070	125.6282
340.000000	42.348	138.2915
345.000000	42.691	150.5552
350.000000	43.011	162.6414
355.000000	43.258	175.1328
360.000000	43.430	-171.5813
365.000000	43.527	-157.9521
370.000000	43.558	-144.3069
375.000000	43.583	-130.6870
382.000000	43.728	-112.0857
387.000000	43.904	-99.1780
395.000000	44.231	-78.5078
400.000000	44.422	-65.3831
406.000000	44.582	-49.4670
412.000000	44.638	-33.4595
418.000000	44.669	-17.4790
425.000000	44.791	1.1152
431.000000	44.989	16.9683
437.000000	45.248	32.6152
444.000000	45.553	50.7964
450.000000	45.735	66.7695
455.000000	45.797	80.6064
462.000000	45.824	100.2993
468.000000	45.887	116.9175
475.000000	46.009	135.9834
482.000000	46.144	154.9243
487.000000	46.236	168.4263
494.000000	46.372	-172.7405
500.000000	46.501	-156.5879
508.000000	46.643	-134.7532
515.000000	46.706	-115.3152
522.000000	46.763	-95.9102
530.000000	46.879	-73.9531
538.000000	47.012	-51.9497
545.000000	47.129	-32.6323
552.000000	47.261	-13.3821
560.000000	47.422	8.6965
570.000000	47.626	36.6748
580.000000	47.823	65.1138
590.000000	47.969	94.0693
600.000000	48.044	122.7085
608.000000	48.058	144.9905
615.000000	48.060	164.4502
622.000000	48.079	-175.7803
630.000000	48.154	-152.8008
640.000000	48.324	-123.8025
650.000000	48.499	-94.7312
660.000000	48.631	-65.5557
670.000000	48.730	-36.4028
680.000000	48.809	-7.4968
690.000000	48.880	21.3291
700.000000	48.953	50.2505
710.000000	49.020	79.3005
720.000000	49.069	108.5649
730.000000	49.110	137.9551
740.000000	49.179	167.4404
750.000000	49.293	-162.8738
762.000000	49.449	-127.1973
775.000000	49.593	-88.8247
788.000000	49.701	-50.5811
800.000000	49.746	-15.0996
812.000000	49.749	20.5776
825.000000	49.790	59.5281
838.000000	49.905	98.5754
850.000000	50.021	134.4333
862.000000	50.115	170.3179
875.000000	50.184	-150.4624
885.000000	50.209	-120.0845
900.000000	50.215	-74.4624
912.000000	50.210	-38.1221
925.000000	50.198	1.0752
938.000000	50.189	40.2354
950.000000	50.195	76.5425
962.000000	50.223	113.1123
975.000000	50.254	153.0117
988.000000	50.239	-166.8862
1000.000000	50.179	-129.7529
1015.000000	50.095	-83.2051
1030.000000	50.050	-36.5845
1044.000000	50.035	6.9854
1060.000000	50.022	56.9609
1075.000000	50.006	103.9102
1090.000000	49.982	150.9131
1106.000000	49.954	-158.6177
1120.000000	49.936	-114.0879
1138.000000	49.911	-56.4595
1150.000000	49.892	-17.8555
1172.000000	49.882	53.1587
1180.000000	49.893	78.9829
1206.000000	49.975	162.6333
1220.000000	50.039	-152.3394
1241.000000	50.153	-84.5615
1250.000000	50.204	-55.4326
1265.000000	50.294	-6.8149
1280.000000	50.405	41.8159
1315.000000	50.768	155.2188
1320.000000	50.826	171.4404
1340.000000	51.056	-123.5938
1360.000000	51.276	-58.5449
1380.000000	51.496	6.4707
1400.000000	51.717	71.4072
1430.000000	52.059	168.7266
1450.000000	52.323	-126.3452
1475.000000	52.704	-45.0898
1500.000000	53.109	36.1636
1525.000000	53.500	117.3945
1550.000000	53.876	-161.3374
1575.000000	54.268	-79.9009
1600.000000	54.692	1.6816
1625.000000	55.123	83.2969
1650.000000	55.536	164.9126
1675.000000	55.929	-113.4238
1700.000000	56.303	-31.7139
1725.000000	56.673	50.1143
1750.000000	57.057	132.1274
1775.000000	57.443	-145.6494
1800.000000	57.814	-63.2373
1825.000000	58.178	19.2939
1850.000000	58.559	101.8975
1875.000000	58.960	-175.4390
1900.000000	59.356	-92.6997
1925.000000	59.737	-9.8867
1950.000000	60.114	72.9614
1975.000000	60.493	155.8296
2000.000000	60.876	-121.2671
2030.000000	61.336	-21.7217
2060.000000	61.794	77.9072
2090.000000	62.237	177.6758
2120.000000	62.655	-82.3628
2140.000000	62.920	-15.6025
2180.000000	63.434	118.1445
2200.000000	63.684	-174.9248
2240.000000	64.170	-41.0674
2270.000000	64.529	59.2188
2300.000000	64.887	159.3945
2330.000000	65.243	-100.4219
2360.000000	65.596	-0.1777
2400.000000	66.058	133.4375
2430.000000	66.391	-126.4424
2470.000000	66.809	6.9629
2500.000000	67.107	106.9961
2540.000000	67.485	-119.5908
2580.000000	67.837	13.9209
2620.000000	68.158	147.6289
2650.000000	68.380	-111.8984
2690.000000	68.644	22.3477
2720.000000	68.811	123.2275
2760.000000	68.992	-101.9824
2800.000000	69.136	33.1758
2850.000000	69.276	-157.4639
2900.000000	69.373	12.1689
2950.000000	69.413	-178.0576
3000.000000	69.398	-8.3643
3040.000000	69.346	127.2607
3070.000000	69.281	-131.0039
3110.000000	69.163	4.8555
3150.000000	69.020	141.1318
3200.000000	68.820	-47.7871
3250.000000	68.610	124.1836
3300.000000	68.396	-62.9736
3350.000000	68.182	110.6895
3400.000000	67.972	-74.9414
3450.000000	67.771	99.9902
3500.000000	67.576	-84.6328
3550.000000	67.388	91.1016
3600.000000	67.214	-92.8574
3650.000000	67.069	83.4189
3700.000000	66.957	-100.1504
3750.000000	66.879	76.4512
3820.000000	66.807	-35.8145
3870.000000	66.768	141.5391
3950.000000	66.678	65.8330
4000.000000	66.577	-116.1680
4060.000000	66.409	97.9453
4120.000000	66.199	-47.1133
4180.000000	65.959	168.8535
4250.000000	65.671	62.1973
4310.000000	65.436	-79.6045
4370.000000	65.219	139.2617
4440.000000	65.001	35.1455
4500.000000	64.846	-105.1416
4550.000000	64.733	78.1953
4620.000000	64.597	-24.7871
4680.000000	64.497	-164.1797
4750.000000	64.397	93.5410
4820.000000	64.318	-8.4121
4870.000000	64.275	176.0762
4940.000000	64.238	74.5391
5000.000000	64.229	-63.8008
5080.000000	64.246	-128.1445
5150.000000	64.269	130.5898
5220.000000	64.285	29.2559
5300.000000	64.290	-35.2148
5380.000000	64.292	-99.5352
5450.000000	64.314	159.4980
5520.000000	64.370	58.8340
5600.000000	64.482	-4.5215
5700.000000	64.705	6.6172
5800.000000	65.019	18.2070
5900.000000	65.421	30.3027
6000.000000	65.893	42.8184
6080.000000	66.300	-18.9492
6150.000000	66.662	-117.8906
6220.000000	67.018	143.1992
6300.000000	67.410	81.5312
6400.000000	67.880	94.2070
6500.000000	68.327	106.4023
6600.000000	68.752	118.1699
6700.000000	69.145	130.0938
6800.000000	69.469	142.8008
6900.000000	69.693	156.5508
7000.000000	69.837	171.3281
7100.000000	69.968	-173.0703
7200.000000	70.146	-156.8516
7300.000000	70.388	-140.1094
7400.000000	70.675	-122.9590
7500.000000	70.979	-105.5586
7620.000000	71.336	-12.4141
7750.000000	71.670	118.9121
7880.000000	71.905	-109.1445
8000.000000	72.026	-14.3438
8120.000000	72.071	81.2988
8250.000000	72.072	-143.7148
8380.000000	72.051	-7.2129
8500.000000	71.993	91.8184
8620.000000	71.852	-169.0547
8750.000000	71.572	-31.5898
8850.000000	71.252	-8.6484
9000.000000	70.577	-153.5898
9120.000000	69.855	-52.8438
9250.000000	68.904	87.5938
9380.000000	67.831	-129.7930
9500.000000	66.779	-23.5977
9620.000000	65.720	84.6836
9750.000000	64.665	-126.0547
9880.000000	63.795	24.4258
10000.000000	63.153	136.0977
10150.000000	62.448	6.2852
10300.000000	61.734	-122.2344
10440.000000	61.034	71.5195
10600.000000	60.215	-13.4766
10750.000000	59.465	-136.4062
10900.000000	58.775	101.8984
11060.000000	58.140	20.8867
11200.000000	57.669	-139.6133
11380.000000	57.114	-139.8164
11500.000000	56.719	-19.5312
11720.000000	55.870	142.4297
11800.000000	55.530	103.7656
12060.000000	54.460	71.0039
12200.000000	53.995	-83.3086
12410.000000	53.490	46.9922
12500.000000	53.336	51.9023
12650.000000	53.147	-59.3516
12800.000000	53.034	-169.9844
13150.000000	53.055	174.1367
13200.000000	53.094	17.8164
13400.000000	53.390	112.9727
13600.000000	53.997	-151.6328
13800.000000	54.945	-56.7070
14000.000000	56.073	36.6953
14300.000000	57.396	170.7422
14500.000000	57.558	-103.7578
14750.000000	56.688	-175.2500
15000.000000	54.853	121.5703
15250.000000	52.587	67.1680
15500.000000	50.373	18.1523
15750.000000	48.461	-29.3555
16000.000000	46.947	-81.2188
16250.000000	45.833	-150.5977
16500.000000	45.012	96.6719
16750.000000	44.366	-81.9648
17000.000000	43.820	49.7695
17250.000000	43.329	167.6875
17500.000000	42.903	-95.5781
17750.000000	42.627	-80.4375
18000.000000	42.606	164.9688
18250.000000	42.762	-131.4609
18500.000000	42.958	-16.9688
18750.000000	43.150	-29.2578
19000.000000	43.316	70.0391
19250.000000	43.391	-26.4297
19500.000000	43.320	-103.2695
19750.000000	43.092	-159.3984
