* Measurement data measured by REW V5.20.13
* Source: Microphone (2- USB Audio Device), MICROPHONE (Master Volume), L, volume: 0.250. Timing signal peak level -37.1 dBFS, measurement signal peak level -28.3 dBFS
* Format: 256k Log Swept Sine, 1 sweep at -12.0 dBFS using an acoustic timing reference
* Dated: 04-May-2023 08:08:22
* REW Settings:
*  C-weighting compensation: Off
*  Target level: 75.0 dB
* Note: 
* Measurement: QCY HT07 Arcbuds R
* Smoothing: 1/12 octave
* Frequency Step: 1/48 octave
* Start Frequency: 20.000 Hz
*
* Freq(Hz)	SPL(dB)	Phase(degrees)
20.000000	65.963	76.2328
20.299999	66.040	75.6405
20.600000	66.119	74.9767
20.900000	66.203	74.2619
21.200001	66.297	73.5083
21.400000	66.366	72.9851
21.799999	66.523	71.8873
22.000000	66.609	71.3131
22.400000	66.799	70.1178
22.700001	66.952	69.1880
23.000000	67.112	68.2385
23.299999	67.274	67.2797
23.600000	67.434	66.3247
24.000000	67.639	65.0834
24.299999	67.783	64.1982
24.700001	67.963	63.0987
25.000000	68.088	62.3375
25.400000	68.244	61.3965
25.799999	68.386	60.5183
26.200001	68.514	59.6833
26.500000	68.601	59.0776
26.900000	68.705	58.2899
27.200001	68.777	57.7065
27.600000	68.866	56.9258
28.000000	68.949	56.1256
28.500000	69.049	55.0783
29.000000	69.145	53.9711
29.500000	69.237	52.8171
30.000000	69.329	51.6499
30.400000	69.404	50.7312
30.700001	69.463	50.0580
31.100000	69.546	49.1799
31.500000	69.636	48.3160
32.000000	69.753	47.2451
32.500000	69.870	46.1893
33.000000	69.982	45.1711
33.500000	70.087	44.2066
34.000000	70.187	43.2903
34.500000	70.281	42.3997
35.000000	70.367	41.5137
35.500000	70.443	40.6226
36.000000	70.510	39.7275
36.500000	70.569	38.8311
37.000000	70.623	37.9304
37.500000	70.672	37.0194
38.200001	70.733	35.7261
38.700001	70.771	34.8007
39.500000	70.829	33.3447
40.000000	70.866	32.4515
40.599998	70.915	31.3839
41.200001	70.965	30.3032
41.799999	71.014	29.2011
42.500000	71.062	27.9031
43.099998	71.092	26.8093
43.700001	71.115	25.7521
44.400002	71.137	24.5652
45.000000	71.154	23.5783
45.500000	71.168	22.7719
46.200001	71.186	21.6628
46.799999	71.203	20.7267
47.500000	71.224	19.6476
48.200001	71.248	18.5845
48.700001	71.265	17.8394
49.400002	71.286	16.8223
50.000000	71.300	15.9735
50.799999	71.309	14.8598
51.500000	71.310	13.8839
52.200001	71.308	12.8954
53.000000	71.301	11.7569
53.799999	71.289	10.6386
54.500000	71.276	9.7002
55.200001	71.262	8.8044
56.000000	71.246	7.8208
57.000000	71.228	6.6190
58.000000	71.208	5.4226
59.000000	71.183	4.2473
60.000000	71.159	3.1037
60.799999	71.143	2.1906
61.500000	71.129	1.3878
62.200001	71.113	0.5960
63.000000	71.093	-0.2753
64.000000	71.070	-1.3150
65.000000	71.048	-2.3356
66.000000	71.021	-3.3554
67.000000	70.986	-4.3572
68.000000	70.946	-5.3274
69.000000	70.903	-6.2765
70.000000	70.860	-7.2155
71.000000	70.816	-8.1375
72.000000	70.773	-9.0295
73.000000	70.734	-9.8964
74.000000	70.695	-10.7657
75.000000	70.653	-11.6541
76.199997	70.593	-12.7216
77.500000	70.523	-13.8555
78.800003	70.455	-14.9788
80.000000	70.395	-16.0158
81.199997	70.336	-17.0542
82.500000	70.266	-18.1595
83.800003	70.193	-19.2245
85.000000	70.122	-20.1799
86.199997	70.046	-21.1178
87.500000	69.960	-22.1154
88.500000	69.891	-22.8630
90.000000	69.785	-23.9354
91.199997	69.700	-24.7507
92.500000	69.606	-25.5897
93.800003	69.510	-26.3731
95.000000	69.421	-27.0592
96.199997	69.332	-27.7411
97.500000	69.235	-28.5013
98.800003	69.137	-29.2863
100.000000	69.045	-30.0091
101.500000	68.931	-30.8601
103.000000	68.822	-31.6246
104.400002	68.721	-32.2676
106.000000	68.603	-32.9398
107.500000	68.488	-33.5328
109.000000	68.370	-34.1296
110.599998	68.239	-34.8005
112.000000	68.119	-35.3914
113.800003	67.961	-36.0953
115.000000	67.856	-36.5176
117.199997	67.668	-37.1979
118.000000	67.601	-37.4191
120.599998	67.379	-38.0848
122.000000	67.256	-38.4183
124.099998	67.069	-38.8764
125.000000	66.990	-39.0572
126.500000	66.860	-39.3420
128.000000	66.736	-39.6125
131.500000	66.454	-40.2025
132.000000	66.414	-40.2793
134.000000	66.250	-40.5583
136.000000	66.081	-40.7985
138.000000	65.905	-41.0078
140.000000	65.725	-41.1936
143.000000	65.464	-41.4775
145.000000	65.296	-41.6655
147.500000	65.087	-41.8262
150.000000	64.885	-41.8709
152.500000	64.697	-41.8649
155.000000	64.516	-41.8698
157.500000	64.331	-41.8677
160.000000	64.144	-41.8106
162.500000	63.964	-41.6725
165.000000	63.796	-41.4482
167.500000	63.639	-41.1552
170.000000	63.491	-40.8511
172.500000	63.349	-40.5781
175.000000	63.210	-40.3103
177.500000	63.062	-39.9952
180.000000	62.900	-39.6122
182.500000	62.722	-39.1694
185.000000	62.534	-38.6828
187.500000	62.344	-38.1573
190.000000	62.159	-37.5722
192.500000	61.990	-36.8973
195.000000	61.848	-36.1283
197.500000	61.740	-35.2941
200.000000	61.668	-34.4404
203.000000	61.619	-33.4622
206.000000	61.598	-32.6003
209.000000	61.594	-31.8699
212.000000	61.596	-31.2158
214.000000	61.593	-30.7817
218.000000	61.574	-29.8795
220.000000	61.560	-29.4278
224.000000	61.528	-28.5621
227.000000	61.507	-27.9258
230.000000	61.488	-27.2713
233.000000	61.471	-26.5959
236.000000	61.457	-25.9123
240.000000	61.447	-25.0177
243.000000	61.442	-24.3782
247.000000	61.434	-23.5855
250.000000	61.429	-23.0382
254.000000	61.436	-22.3513
258.000000	61.460	-21.6915
262.000000	61.491	-21.0497
265.000000	61.514	-20.5727
269.000000	61.542	-19.9389
272.000000	61.563	-19.4806
276.000000	61.593	-18.9139
280.000000	61.625	-18.3882
285.000000	61.669	-17.7530
290.000000	61.720	-17.1344
295.000000	61.773	-16.5589
300.000000	61.821	-16.0458
304.000000	61.855	-15.6850
307.000000	61.882	-15.4480
311.000000	61.918	-15.1858
315.000000	61.954	-14.9802
320.000000	61.993	-14.7786
325.000000	62.033	-14.6254
330.000000	62.072	-14.5029
335.000000	62.106	-14.4042
340.000000	62.136	-14.3614
345.000000	62.169	-14.3939
350.000000	62.201	-14.4841
355.000000	62.226	-14.5813
360.000000	62.244	-14.6449
365.000000	62.262	-14.6818
370.000000	62.279	-14.7169
375.000000	62.295	-14.7646
382.000000	62.312	-14.8146
387.000000	62.319	-14.7825
395.000000	62.329	-14.5712
400.000000	62.334	-14.3901
406.000000	62.338	-14.2147
412.000000	62.343	-14.1233
418.000000	62.355	-14.0765
425.000000	62.378	-14.0221
431.000000	62.401	-13.9744
437.000000	62.423	-13.9590
444.000000	62.440	-14.0059
450.000000	62.449	-14.0696
455.000000	62.455	-14.1211
462.000000	62.461	-14.1907
468.000000	62.459	-14.2396
475.000000	62.450	-14.2428
482.000000	62.438	-14.1700
487.000000	62.427	-14.0866
494.000000	62.409	-13.9316
500.000000	62.396	-13.7540
508.000000	62.379	-13.4741
515.000000	62.361	-13.2338
522.000000	62.342	-12.9978
530.000000	62.321	-12.7142
538.000000	62.301	-12.4412
545.000000	62.280	-12.2349
552.000000	62.256	-12.0632
560.000000	62.227	-11.8941
570.000000	62.192	-11.7001
580.000000	62.159	-11.5147
590.000000	62.132	-11.3241
600.000000	62.110	-11.1133
608.000000	62.090	-10.9034
615.000000	62.070	-10.6831
622.000000	62.048	-10.4493
630.000000	62.022	-10.1952
640.000000	61.990	-9.9088
650.000000	61.956	-9.6584
660.000000	61.921	-9.4895
670.000000	61.890	-9.4616
680.000000	61.865	-9.5546
690.000000	61.840	-9.6846
700.000000	61.811	-9.8415
710.000000	61.781	-10.0520
720.000000	61.763	-10.2686
730.000000	61.761	-10.4172
740.000000	61.766	-10.4665
750.000000	61.768	-10.4117
762.000000	61.762	-10.2154
775.000000	61.753	-9.8882
788.000000	61.746	-9.5147
800.000000	61.744	-9.1801
812.000000	61.752	-8.8594
825.000000	61.773	-8.4853
838.000000	61.796	-7.9974
850.000000	61.818	-7.4059
862.000000	61.850	-6.7306
875.000000	61.900	-5.9875
885.000000	61.942	-5.4351
900.000000	62.003	-4.6293
912.000000	62.052	-3.9847
925.000000	62.117	-3.2989
938.000000	62.193	-2.6401
950.000000	62.270	-2.0466
962.000000	62.349	-1.4742
975.000000	62.433	-0.9064
988.000000	62.518	-0.3904
1000.000000	62.599	0.0707
1015.000000	62.702	0.6615
1030.000000	62.811	1.2692
1044.000000	62.924	1.8122
1060.000000	63.060	2.3881
1075.000000	63.184	2.9048
1090.000000	63.305	3.3890
1106.000000	63.440	3.8228
1120.000000	63.567	4.1052
1138.000000	63.734	4.2961
1150.000000	63.841	4.2818
1172.000000	64.025	3.9223
1180.000000	64.089	3.6928
1206.000000	64.310	2.6839
1220.000000	64.440	2.0456
1241.000000	64.642	1.0581
1250.000000	64.731	0.6237
1265.000000	64.878	-0.1321
1280.000000	65.024	-0.9326
1315.000000	65.331	-2.8904
1320.000000	65.367	-3.1748
1340.000000	65.481	-4.3200
1360.000000	65.540	-5.4711
1380.000000	65.554	-6.6047
1400.000000	65.552	-7.6742
1430.000000	65.571	-9.1176
1450.000000	65.613	-10.0399
1475.000000	65.695	-11.2217
1500.000000	65.798	-12.4202
1525.000000	65.902	-13.5546
1550.000000	66.005	-14.5499
1575.000000	66.119	-15.3816
1600.000000	66.243	-16.0887
1625.000000	66.368	-16.7403
1650.000000	66.490	-17.3465
1675.000000	66.608	-17.8513
1700.000000	66.722	-18.2104
1725.000000	66.832	-18.4829
1750.000000	66.938	-18.7822
1775.000000	67.042	-19.1580
1800.000000	67.143	-19.5851
1825.000000	67.247	-20.0154
1850.000000	67.358	-20.3820
1875.000000	67.476	-20.6244
1900.000000	67.600	-20.7423
1925.000000	67.728	-20.7998
1950.000000	67.856	-20.8748
1975.000000	67.983	-21.0120
2000.000000	68.108	-21.2129
2030.000000	68.260	-21.4875
2060.000000	68.414	-21.7266
2090.000000	68.567	-21.9149
2120.000000	68.719	-22.0701
2140.000000	68.821	-22.1539
2180.000000	69.034	-22.2922
2200.000000	69.143	-22.3677
2240.000000	69.359	-22.5573
2270.000000	69.524	-22.7103
2300.000000	69.697	-22.8345
2330.000000	69.877	-22.9175
2360.000000	70.061	-23.0058
2400.000000	70.306	-23.2791
2430.000000	70.484	-23.6734
2470.000000	70.716	-24.4485
2500.000000	70.885	-25.1830
2540.000000	71.101	-26.3436
2580.000000	71.308	-27.7228
2620.000000	71.508	-29.2516
2650.000000	71.656	-30.4083
2690.000000	71.846	-31.9180
2720.000000	71.984	-33.0632
2760.000000	72.155	-34.6919
2800.000000	72.308	-36.4758
2850.000000	72.474	-38.8478
2900.000000	72.613	-41.2236
2950.000000	72.721	-43.6041
3000.000000	72.790	-46.1236
3040.000000	72.808	-48.2685
3070.000000	72.801	-49.9003
3110.000000	72.772	-52.0028
3150.000000	72.729	-53.9408
3200.000000	72.661	-56.0874
3250.000000	72.570	-57.9267
3300.000000	72.456	-59.4974
3350.000000	72.319	-60.8941
3400.000000	72.159	-62.2523
3450.000000	71.974	-63.6607
3500.000000	71.774	-65.0877
3550.000000	71.571	-66.4230
3600.000000	71.376	-67.5876
3650.000000	71.193	-68.5911
3700.000000	71.020	-69.4788
3750.000000	70.852	-70.2275
3820.000000	70.627	-70.8610
3870.000000	70.476	-70.9372
3950.000000	70.251	-70.4670
4000.000000	70.126	-69.8735
4060.000000	69.984	-69.0152
4120.000000	69.840	-68.1954
4180.000000	69.705	-67.5167
4250.000000	69.571	-66.8602
4310.000000	69.476	-66.2903
4370.000000	69.405	-65.6089
4440.000000	69.369	-64.6515
4500.000000	69.388	-63.7525
4550.000000	69.437	-63.0029
4620.000000	69.550	-62.0106
4680.000000	69.686	-61.2469
4750.000000	69.885	-60.4979
4820.000000	70.121	-60.0113
4870.000000	70.304	-59.9688
4940.000000	70.566	-60.5608
5000.000000	70.785	-61.7337
5080.000000	71.050	-64.0668
5150.000000	71.243	-66.5128
5220.000000	71.385	-69.1244
5300.000000	71.467	-72.3382
5380.000000	71.448	-75.9773
5450.000000	71.341	-79.5408
5520.000000	71.156	-83.2649
5600.000000	70.870	-87.3903
5700.000000	70.438	-92.1031
5800.000000	69.958	-96.3454
5900.000000	69.468	-99.9606
6000.000000	69.008	-102.7562
6080.000000	68.671	-104.4785
6150.000000	68.395	-105.7010
6220.000000	68.131	-106.7091
6300.000000	67.839	-107.6381
6400.000000	67.488	-108.4925
6500.000000	67.155	-109.0959
6600.000000	66.834	-109.5840
6700.000000	66.522	-109.9209
6800.000000	66.222	-110.0068
6900.000000	65.927	-109.8718
7000.000000	65.633	-109.6194
7100.000000	65.342	-109.3618
7200.000000	65.063	-109.1742
7300.000000	64.812	-109.0568
7400.000000	64.597	-109.0055
7500.000000	64.428	-109.0090
7620.000000	64.300	-109.0157
7750.000000	64.233	-109.0363
7880.000000	64.202	-109.1115
8000.000000	64.199	-109.1787
8120.000000	64.251	-109.2435
8250.000000	64.425	-109.7102
8380.000000	64.771	-111.3754
8500.000000	65.267	-114.4395
8620.000000	65.910	-119.1468
8750.000000	66.674	-126.3427
8850.000000	67.213	-133.5716
9000.000000	67.733	-147.2291
9120.000000	67.754	-159.8086
9250.000000	67.295	-173.3680
9380.000000	66.347	174.9601
9500.000000	65.119	166.9634
9620.000000	63.674	161.9703
9750.000000	62.004	159.5615
9880.000000	60.339	159.2901
10000.000000	58.870	160.1028
10150.000000	57.172	162.0532
10300.000000	55.646	164.9096
10440.000000	54.367	168.2485
10600.000000	53.048	172.5848
10750.000000	51.937	176.9701
10900.000000	50.938	-178.3519
11060.000000	49.981	-172.9505
11200.000000	49.221	-167.8662
11380.000000	48.335	-161.1161
11500.000000	47.798	-156.7287
11720.000000	46.926	-149.3350
11800.000000	46.644	-146.8721
12060.000000	45.826	-139.2207
12200.000000	45.443	-134.9997
12410.000000	44.933	-128.6052
12500.000000	44.735	-125.9990
12650.000000	44.427	-121.9557
12800.000000	44.135	-118.1381
13150.000000	43.450	-108.7576
13200.000000	43.350	-107.3423
13400.000000	42.971	-101.6192
13600.000000	42.660	-95.7800
13800.000000	42.487	-89.6068
14000.000000	42.479	-82.9534
14300.000000	42.733	-71.7888
14500.000000	43.111	-63.3608
14750.000000	43.872	-52.3883
15000.000000	44.936	-42.2295
15250.000000	46.255	-33.9517
15500.000000	47.831	-28.4025
15750.000000	49.618	-26.8600
16000.000000	51.403	-30.6331
16250.000000	52.804	-40.1856
16500.000000	53.442	-54.2799
16750.000000	53.155	-68.9655
17000.000000	52.080	-79.7846
17250.000000	50.552	-85.1108
17500.000000	48.949	-86.1954
17750.000000	47.577	-85.4031
18000.000000	46.595	-85.7970
18250.000000	46.020	-91.9342
18500.000000	45.819	-111.6334
18750.000000	45.944	-156.9496
19000.000000	46.301	125.0638
19250.000000	46.758	32.2218
19500.000000	47.184	-41.9056
19750.000000	47.483	-84.4670
