* Measurement data measured by REW V5.31.3
* Source: Microphone (USB Sound Device        ), MICROPHONE (Master Volume), L, volume: 0.700
* Format: 256k Log Swept Sine, 1 sweep at -12.0 dBFS with no timing reference
* Dated: 31-Jan-2025 16:16:23
* REW Settings:
*  C-weighting compensation: Off
*  Target level: 75.0 dB
* Note: 
* Measurement: KZ Xtra A
* Smoothing: 1/12 octave
* Frequency Step: 1/48 octave
* Start Frequency: 20.300 Hz
*
* Freq(Hz)	SPL(dB)	Phase(degrees)
20.299999	91.398	-155.7915
20.600000	91.428	-156.2041
20.900000	91.466	-156.7175
21.200001	91.508	-157.2690
21.400000	91.537	-157.6479
21.799999	91.592	-158.4237
22.000000	91.617	-158.8154
22.400000	91.662	-159.5900
22.700001	91.693	-160.1530
23.000000	91.723	-160.6988
23.299999	91.753	-161.2339
23.600000	91.784	-161.7685
24.000000	91.822	-162.4924
24.299999	91.847	-163.0419
24.700001	91.874	-163.7647
25.000000	91.891	-164.2837
25.400000	91.912	-164.9316
25.799999	91.934	-165.5364
26.200001	91.961	-166.1233
26.500000	91.983	-166.5677
26.900000	92.012	-167.1766
27.200001	92.033	-167.6447
27.600000	92.058	-168.2760
28.000000	92.081	-168.9070
28.500000	92.105	-169.6879
29.000000	92.123	-170.4548
29.500000	92.135	-171.2007
30.000000	92.146	-171.9258
30.400000	92.156	-172.5014
30.700001	92.165	-172.9376
31.100000	92.177	-173.5273
31.500000	92.191	-174.1178
32.000000	92.209	-174.8319
32.500000	92.230	-175.5035
33.000000	92.254	-176.1519
33.500000	92.280	-176.8177
34.000000	92.299	-177.5219
34.500000	92.308	-178.2492
35.000000	92.309	-178.9691
35.500000	92.307	-179.6647
36.000000	92.305	179.6616
36.500000	92.306	179.0008
37.000000	92.309	178.3467
37.500000	92.311	177.6951
38.200001	92.309	176.7874
38.700001	92.305	176.1555
39.500000	92.299	175.2009
40.000000	92.299	174.6261
40.599998	92.301	173.9249
41.200001	92.300	173.2027
41.799999	92.294	172.4788
42.500000	92.281	171.6506
43.099998	92.267	170.9541
43.700001	92.250	170.2750
44.400002	92.231	169.5112
45.000000	92.216	168.8651
45.500000	92.202	168.3187
46.200001	92.179	167.5403
46.799999	92.157	166.8673
47.500000	92.134	166.0714
48.200001	92.115	165.2640
48.700001	92.104	164.6940
49.400002	92.087	163.9250
50.000000	92.068	163.2922
50.799999	92.029	162.4665
51.500000	91.985	161.7549
52.200001	91.938	161.0597
53.000000	91.888	160.2864
53.799999	91.842	159.5208
54.500000	91.802	158.8452
55.200001	91.760	158.1631
56.000000	91.710	157.3824
57.000000	91.651	156.4166
58.000000	91.591	155.4684
59.000000	91.523	154.5479
60.000000	91.446	153.6727
60.799999	91.384	152.9937
61.500000	91.332	152.3956
62.200001	91.283	151.7895
63.000000	91.227	151.0998
64.000000	91.158	150.2635
65.000000	91.085	149.4440
66.000000	91.004	148.6267
67.000000	90.921	147.8240
68.000000	90.839	147.0204
69.000000	90.754	146.1918
70.000000	90.665	145.3635
71.000000	90.572	144.5799
72.000000	90.481	143.8548
73.000000	90.393	143.1642
74.000000	90.307	142.4779
75.000000	90.217	141.7953
76.199997	90.103	140.9975
77.500000	89.975	140.1383
78.800003	89.848	139.3065
80.000000	89.729	138.6092
81.199997	89.605	137.9288
82.500000	89.470	137.1342
83.800003	89.344	136.3085
85.000000	89.227	135.5924
86.199997	89.099	134.9350
87.500000	88.949	134.2538
88.500000	88.836	133.7401
90.000000	88.672	132.9864
91.199997	88.543	132.3783
92.500000	88.404	131.7018
93.800003	88.266	131.0305
95.000000	88.138	130.4482
96.199997	88.008	129.9140
97.500000	87.861	129.3759
98.800003	87.706	128.8568
100.000000	87.556	128.3782
101.500000	87.363	127.7694
103.000000	87.171	127.1761
104.400002	86.991	126.6697
106.000000	86.784	126.1372
107.500000	86.589	125.6630
109.000000	86.392	125.2336
110.599998	86.175	124.8110
112.000000	85.980	124.4409
113.800003	85.726	123.9698
115.000000	85.557	123.6967
117.199997	85.244	123.3793
118.000000	85.129	123.3285
120.599998	84.752	123.3151
122.000000	84.549	123.3603
124.099998	84.242	123.4822
125.000000	84.109	123.5621
126.500000	83.887	123.7353
128.000000	83.666	123.9543
131.500000	83.168	124.7590
132.000000	83.099	124.9229
134.000000	82.829	125.6942
136.000000	82.570	126.6133
138.000000	82.321	127.6382
140.000000	82.080	128.7399
143.000000	81.755	130.5396
145.000000	81.569	131.8494
147.500000	81.379	133.5587
150.000000	81.240	135.3177
152.500000	81.146	137.0657
155.000000	81.089	138.7339
157.500000	81.055	140.3135
160.000000	81.039	141.7628
162.500000	81.048	143.0363
165.000000	81.081	144.1455
167.500000	81.129	145.1191
170.000000	81.188	145.9633
172.500000	81.251	146.6872
175.000000	81.313	147.2924
177.500000	81.367	147.7841
180.000000	81.412	148.1771
182.500000	81.442	148.4752
185.000000	81.458	148.6827
187.500000	81.465	148.8201
190.000000	81.469	148.9167
192.500000	81.472	148.9754
195.000000	81.476	148.9736
197.500000	81.488	148.9171
200.000000	81.508	148.8386
203.000000	81.542	148.7301
206.000000	81.582	148.5739
209.000000	81.618	148.3665
212.000000	81.639	148.1369
214.000000	81.640	147.9875
218.000000	81.613	147.7187
220.000000	81.590	147.5968
224.000000	81.537	147.3560
227.000000	81.492	147.1821
230.000000	81.441	147.0186
233.000000	81.382	146.8607
236.000000	81.320	146.7272
240.000000	81.235	146.5895
243.000000	81.171	146.5259
247.000000	81.077	146.5513
250.000000	81.002	146.6635
254.000000	80.907	146.9345
258.000000	80.830	147.3591
262.000000	80.783	147.9272
265.000000	80.776	148.3871
269.000000	80.813	148.9005
272.000000	80.868	149.1075
276.000000	80.955	149.0455
280.000000	81.030	148.6082
285.000000	81.081	147.7042
290.000000	81.073	146.6900
295.000000	81.010	145.7756
300.000000	80.904	144.9973
304.000000	80.804	144.4715
307.000000	80.728	144.1326
311.000000	80.626	143.7533
315.000000	80.521	143.4616
320.000000	80.389	143.1999
325.000000	80.259	143.0199
330.000000	80.131	142.8903
335.000000	80.011	142.7930
340.000000	79.900	142.7332
345.000000	79.796	142.7106
350.000000	79.693	142.7088
355.000000	79.584	142.7306
360.000000	79.472	142.7781
365.000000	79.367	142.8400
370.000000	79.269	142.9113
375.000000	79.172	142.9846
382.000000	79.038	143.0902
387.000000	78.947	143.2003
395.000000	78.810	143.4942
400.000000	78.727	143.7357
406.000000	78.632	144.0398
412.000000	78.542	144.3333
418.000000	78.460	144.6214
425.000000	78.372	144.9903
431.000000	78.301	145.3664
437.000000	78.233	145.7543
444.000000	78.161	146.1626
450.000000	78.107	146.4874
455.000000	78.067	146.7348
462.000000	78.016	147.0214
468.000000	77.977	147.2352
475.000000	77.932	147.4861
482.000000	77.883	147.7218
487.000000	77.845	147.8650
494.000000	77.791	148.0430
500.000000	77.745	148.2106
508.000000	77.680	148.5016
515.000000	77.623	148.7827
522.000000	77.570	149.0346
530.000000	77.519	149.2839
538.000000	77.477	149.5398
545.000000	77.442	149.7857
552.000000	77.411	150.0457
560.000000	77.378	150.3672
570.000000	77.344	150.7760
580.000000	77.313	151.1453
590.000000	77.281	151.5223
600.000000	77.246	151.9225
608.000000	77.214	152.2382
615.000000	77.186	152.4940
622.000000	77.159	152.7344
630.000000	77.131	153.0067
640.000000	77.103	153.3214
650.000000	77.081	153.5679
660.000000	77.068	153.7983
670.000000	77.066	154.0822
680.000000	77.063	154.4160
690.000000	77.052	154.7729
700.000000	77.040	155.1281
710.000000	77.038	155.4270
720.000000	77.037	155.6735
730.000000	77.032	155.9395
740.000000	77.027	156.2375
750.000000	77.030	156.5300
762.000000	77.044	156.8578
775.000000	77.069	157.2248
788.000000	77.100	157.6249
800.000000	77.131	157.9820
812.000000	77.163	158.3260
825.000000	77.200	158.6822
838.000000	77.238	158.9901
850.000000	77.273	159.2770
862.000000	77.313	159.5757
875.000000	77.361	159.8711
885.000000	77.397	160.0440
900.000000	77.449	160.2119
912.000000	77.490	160.3112
925.000000	77.531	160.3962
938.000000	77.566	160.4715
950.000000	77.596	160.5584
962.000000	77.623	160.6795
975.000000	77.655	160.8692
988.000000	77.693	161.1170
1000.000000	77.737	161.3613
1015.000000	77.805	161.6240
1030.000000	77.886	161.8170
1044.000000	77.969	161.9644
1060.000000	78.075	162.0994
1075.000000	78.179	162.1857
1090.000000	78.280	162.2498
1106.000000	78.381	162.3050
1120.000000	78.465	162.3276
1138.000000	78.572	162.3059
1150.000000	78.644	162.2535
1172.000000	78.783	162.0634
1180.000000	78.836	161.9704
1206.000000	79.020	161.5952
1220.000000	79.120	161.3637
1241.000000	79.274	161.0287
1250.000000	79.343	160.8932
1265.000000	79.462	160.6627
1280.000000	79.585	160.4042
1315.000000	79.855	159.6813
1320.000000	79.887	159.5764
1340.000000	79.982	159.1765
1360.000000	80.022	158.8036
1380.000000	80.021	158.4424
1400.000000	80.009	158.0728
1430.000000	80.017	157.4918
1450.000000	80.047	157.1448
1475.000000	80.118	156.7877
1500.000000	80.231	156.4770
1525.000000	80.373	156.2041
1550.000000	80.521	155.9684
1575.000000	80.658	155.7505
1600.000000	80.790	155.4966
1625.000000	80.924	155.1982
1650.000000	81.058	154.9156
1675.000000	81.196	154.6623
1700.000000	81.340	154.3906
1725.000000	81.488	154.0955
1750.000000	81.640	153.8183
1775.000000	81.792	153.5702
1800.000000	81.947	153.3289
1825.000000	82.108	153.0707
1850.000000	82.276	152.7787
1875.000000	82.448	152.4510
1900.000000	82.621	152.0919
1925.000000	82.795	151.7133
1950.000000	82.972	151.3130
1975.000000	83.151	150.8716
2000.000000	83.330	150.3638
2030.000000	83.544	149.6747
2060.000000	83.759	148.9222
2090.000000	83.974	148.0887
2120.000000	84.190	147.1487
2140.000000	84.336	146.4698
2180.000000	84.621	145.0061
2200.000000	84.756	144.2150
2240.000000	85.006	142.5701
2270.000000	85.184	141.3070
2300.000000	85.360	140.0050
2330.000000	85.532	138.6605
2360.000000	85.699	137.2841
2400.000000	85.914	135.4348
2430.000000	86.069	134.0464
2470.000000	86.269	132.1752
2500.000000	86.415	130.7203
2540.000000	86.603	128.6418
2580.000000	86.780	126.3849
2620.000000	86.938	123.9543
2650.000000	87.037	122.0107
2690.000000	87.135	119.3003
2720.000000	87.181	117.2328
2760.000000	87.206	114.4786
2800.000000	87.188	111.7498
2850.000000	87.104	108.4181
2900.000000	86.962	105.2654
2950.000000	86.781	102.3560
3000.000000	86.569	99.7324
3040.000000	86.377	97.8629
3070.000000	86.222	96.5999
3110.000000	86.005	95.1100
3150.000000	85.780	93.8526
3200.000000	85.502	92.5924
3250.000000	85.231	91.6096
3300.000000	84.964	90.8592
3350.000000	84.699	90.3176
3400.000000	84.437	89.9405
3450.000000	84.176	89.6974
3500.000000	83.917	89.5725
3550.000000	83.666	89.5403
3600.000000	83.422	89.5818
3650.000000	83.189	89.7051
3700.000000	82.975	89.9210
3750.000000	82.788	90.2137
3820.000000	82.566	90.7399
3870.000000	82.424	91.1946
3950.000000	82.213	92.0413
4000.000000	82.090	92.6426
4060.000000	81.938	93.4926
4120.000000	81.783	94.5407
4180.000000	81.631	95.8099
4250.000000	81.459	97.5189
4310.000000	81.317	99.1121
4370.000000	81.189	100.7816
4440.000000	81.068	102.8016
4500.000000	80.994	104.5822
4550.000000	80.952	106.0978
4620.000000	80.921	108.2645
4680.000000	80.917	110.1536
4750.000000	80.930	112.3828
4820.000000	80.959	114.6363
4870.000000	80.989	116.2575
4940.000000	81.042	118.5328
5000.000000	81.100	120.4816
5080.000000	81.195	123.0630
5150.000000	81.292	125.3069
5220.000000	81.400	127.5553
5300.000000	81.536	130.1259
5380.000000	81.687	132.6737
5450.000000	81.835	134.8682
5520.000000	82.002	137.0290
5600.000000	82.219	139.4606
5700.000000	82.538	142.4549
5800.000000	82.913	145.4000
5900.000000	83.345	148.2023
6000.000000	83.826	150.7305
6080.000000	84.235	152.4760
6150.000000	84.600	153.7607
6220.000000	84.967	154.7855
6300.000000	85.386	155.5895
6400.000000	85.899	155.9628
6500.000000	86.377	155.5896
6600.000000	86.785	154.4813
6700.000000	87.089	152.7103
6800.000000	87.255	150.4800
6900.000000	87.265	148.0986
7000.000000	87.122	145.9253
7100.000000	86.847	144.2862
7200.000000	86.486	143.3674
7300.000000	86.082	143.2469
7400.000000	85.667	143.9540
7500.000000	85.266	145.5013
7620.000000	84.832	148.4537
7750.000000	84.415	152.8485
7880.000000	84.015	158.2050
8000.000000	83.643	163.7375
8120.000000	83.275	169.6165
8250.000000	82.904	176.1496
8380.000000	82.602	-177.3062
8500.000000	82.414	-171.3211
8620.000000	82.324	-165.4297
8750.000000	82.331	-159.2010
8850.000000	82.402	-154.5573
9000.000000	82.595	-147.9101
9120.000000	82.805	-142.9276
9250.000000	83.058	-138.0036
9380.000000	83.313	-133.7474
9500.000000	83.532	-130.4960
9620.000000	83.715	-127.9035
9750.000000	83.836	-125.7780
9880.000000	83.840	-124.1983
10000.000000	83.720	-123.0012
10150.000000	83.397	-121.4705
10300.000000	82.884	-119.4774
10440.000000	82.252	-116.8709
10600.000000	81.387	-112.7076
10750.000000	80.488	-107.4624
10900.000000	79.561	-100.8397
11060.000000	78.588	-92.3543
11200.000000	77.773	-83.8955
11380.000000	76.793	-71.8166
11500.000000	76.194	-63.1301
11720.000000	75.237	-46.2164
11800.000000	74.939	-39.8150
12060.000000	74.153	-18.4676
12200.000000	73.829	-6.8317
12410.000000	73.446	10.7296
12500.000000	73.313	18.3232
12650.000000	73.125	31.1040
12800.000000	72.967	44.0966
13150.000000	72.653	75.6036
13200.000000	72.616	80.2171
13400.000000	72.518	98.7392
13600.000000	72.571	117.1176
13800.000000	72.852	135.0995
14000.000000	73.389	152.1952
14300.000000	74.550	174.4851
14500.000000	75.381	-173.9803
14750.000000	76.186	-163.6393
15000.000000	76.460	-156.5609
15250.000000	76.046	-150.4285
15500.000000	74.957	-142.9028
15750.000000	73.387	-132.3358
16000.000000	71.636	-117.9542
16250.000000	70.008	-99.8806
16500.000000	68.711	-79.1002
16750.000000	67.794	-56.8589
17000.000000	67.203	-33.9072
17250.000000	66.864	-10.9050
17500.000000	66.714	11.6669
17750.000000	66.722	33.8729
18000.000000	66.880	55.7572
18250.000000	67.179	77.0312
18500.000000	67.569	97.1141
18750.000000	67.956	115.4889
19000.000000	68.249	132.0341
19250.000000	68.360	146.8387
19500.000000	68.231	159.9535
19750.000000	67.909	170.8228
20000.000000	67.627	177.3859
