* Measurement data measured by REW V5.31.3
* Source: Microphone (6- USB Sound Device        ), MICROPHONE (Master Volume), L, volume: 0.700
* Format: 256k Log Swept Sine, 1 sweep at -12.0 dBFS with no timing reference
* Dated: 03-Jun-2025 19:58:45
* REW Settings:
*  C-weighting compensation: Off
*  Target level: 75.0 dB
* Note: 
* Measurement: RBA7P DB L
* Smoothing: 1/12 octave
* Frequency Step: 1/48 octave
* Start Frequency: 20.300 Hz
*
* Freq(Hz)	SPL(dB)	Phase(degrees)
20.299999	89.570	-51.2299
20.600000	89.630	-52.3574
20.900000	89.706	-53.7699
21.200001	89.787	-55.2818
21.400000	89.843	-56.3090
21.799999	89.956	-58.3789
22.000000	90.014	-59.4165
22.400000	90.131	-61.4896
22.700001	90.220	-63.0390
23.000000	90.310	-64.5825
23.299999	90.399	-66.1217
23.600000	90.487	-67.6606
24.000000	90.600	-69.7215
24.299999	90.681	-71.2796
24.700001	90.784	-73.3771
25.000000	90.858	-74.9628
25.400000	90.953	-77.0851
25.799999	91.047	-79.2059
26.200001	91.140	-81.3185
26.500000	91.211	-82.8978
26.900000	91.307	-85.0002
27.200001	91.378	-86.5765
27.600000	91.473	-88.6770
28.000000	91.566	-90.7717
28.500000	91.678	-93.3757
29.000000	91.786	-95.9677
29.500000	91.892	-98.5673
30.000000	91.995	-101.1951
30.400000	92.073	-103.3208
30.700001	92.130	-104.9244
31.100000	92.202	-107.0645
31.500000	92.274	-109.1962
32.000000	92.366	-111.8402
32.500000	92.462	-114.4664
33.000000	92.558	-117.0897
33.500000	92.648	-119.7190
34.000000	92.731	-122.3490
34.500000	92.804	-124.9671
35.000000	92.872	-127.5677
35.500000	92.938	-130.1600
36.000000	93.005	-132.7605
36.500000	93.073	-135.3800
37.000000	93.140	-138.0160
37.500000	93.204	-140.6569
38.200001	93.286	-144.3400
38.700001	93.342	-146.9516
39.500000	93.425	-151.0972
40.000000	93.474	-153.6754
40.599998	93.528	-156.7624
41.200001	93.575	-159.8362
41.799999	93.619	-162.8839
42.500000	93.667	-166.4060
43.099998	93.707	-169.4161
43.700001	93.746	-172.4335
44.400002	93.787	-175.9570
45.000000	93.820	-178.9654
45.500000	93.846	178.5378
46.200001	93.880	175.0486
46.799999	93.905	172.0554
47.500000	93.931	168.5600
48.200001	93.958	165.0730
48.700001	93.978	162.5990
49.400002	94.005	159.1727
50.000000	94.021	156.2700
50.799999	94.025	152.4241
51.500000	94.019	149.0644
52.200001	94.013	145.7178
53.000000	94.010	141.9303
53.799999	94.009	138.1809
54.500000	94.004	134.9158
55.200001	93.995	131.6588
56.000000	93.982	127.9557
57.000000	93.968	123.3793
58.000000	93.949	118.8600
59.000000	93.922	114.3513
60.000000	93.892	109.8295
60.799999	93.867	106.2305
61.500000	93.844	103.1165
62.200001	93.821	100.0338
63.000000	93.797	96.5308
64.000000	93.770	92.1629
65.000000	93.739	87.8264
66.000000	93.704	83.5496
67.000000	93.667	79.3344
68.000000	93.629	75.1677
69.000000	93.591	71.0270
70.000000	93.549	66.8895
71.000000	93.505	62.7390
72.000000	93.461	58.5782
73.000000	93.415	54.4415
74.000000	93.367	50.3603
75.000000	93.319	46.3255
76.199997	93.258	41.5056
77.500000	93.187	36.3225
78.800003	93.113	31.2235
80.000000	93.048	26.5780
81.199997	92.985	21.9456
82.500000	92.915	16.9187
83.800003	92.843	11.9078
85.000000	92.776	7.3035
86.199997	92.710	2.7181
87.500000	92.641	-2.1978
88.500000	92.589	-5.9295
90.000000	92.511	-11.4860
91.199997	92.446	-15.9199
92.500000	92.371	-20.7011
93.800003	92.296	-25.4677
95.000000	92.228	-29.8837
96.199997	92.160	-34.3210
97.500000	92.086	-39.1051
98.800003	92.012	-43.8142
100.000000	91.944	-48.0874
101.500000	91.861	-53.3666
103.000000	91.780	-58.6309
104.400002	91.706	-63.5378
106.000000	91.622	-69.1060
107.500000	91.541	-74.2876
109.000000	91.461	-79.4530
110.599998	91.380	-84.9590
112.000000	91.310	-89.7656
113.800003	91.219	-95.9102
115.000000	91.156	-99.9855
117.199997	91.039	-107.4283
118.000000	90.997	-110.1265
120.599998	90.854	-118.8891
122.000000	90.778	-123.6162
124.099998	90.665	-130.6796
125.000000	90.616	-133.6842
126.500000	90.533	-138.6605
128.000000	90.449	-143.6109
131.500000	90.246	-155.1121
132.000000	90.216	-156.7460
134.000000	90.094	-163.2571
136.000000	89.968	-169.7278
138.000000	89.842	-176.1482
140.000000	89.722	177.4733
143.000000	89.552	167.9158
145.000000	89.432	161.5842
147.500000	89.269	153.7706
150.000000	89.101	146.0310
152.500000	88.935	138.3134
155.000000	88.768	130.6578
157.500000	88.601	123.0946
160.000000	88.436	115.5693
162.500000	88.277	108.0623
165.000000	88.122	100.6005
167.500000	87.965	93.1814
170.000000	87.806	85.8074
172.500000	87.643	78.4917
175.000000	87.476	71.2402
177.500000	87.305	64.0759
180.000000	87.130	57.0217
182.500000	86.949	50.0278
185.000000	86.758	43.0402
187.500000	86.553	36.0663
190.000000	86.343	29.1401
192.500000	86.141	22.2917
195.000000	85.957	15.5380
197.500000	85.794	8.8752
200.000000	85.647	2.2471
203.000000	85.490	-5.7531
206.000000	85.357	-13.7825
209.000000	85.235	-21.7379
212.000000	85.106	-29.5668
214.000000	85.012	-34.7355
218.000000	84.815	-45.0292
220.000000	84.716	-50.1830
224.000000	84.522	-60.5234
227.000000	84.376	-68.2856
230.000000	84.223	-76.0431
233.000000	84.063	-83.7868
236.000000	83.897	-91.4894
240.000000	83.672	-101.6237
243.000000	83.497	-109.1229
247.000000	83.257	-119.0281
250.000000	83.075	-126.3981
254.000000	82.836	-136.1343
258.000000	82.600	-145.7151
262.000000	82.364	-155.1116
265.000000	82.187	-162.0623
269.000000	81.956	-171.2301
272.000000	81.789	-178.0330
276.000000	81.576	173.0194
280.000000	81.376	164.2229
285.000000	81.149	153.3867
290.000000	80.947	142.6718
295.000000	80.774	132.0435
300.000000	80.633	121.4586
304.000000	80.540	112.9990
307.000000	80.483	106.6602
311.000000	80.422	98.2234
315.000000	80.375	89.8068
320.000000	80.329	79.3068
325.000000	80.299	68.7985
330.000000	80.290	58.2249
335.000000	80.297	47.5803
340.000000	80.312	36.9065
345.000000	80.328	26.1797
350.000000	80.339	15.3967
355.000000	80.347	4.5769
360.000000	80.355	-6.2819
365.000000	80.366	-17.1642
370.000000	80.379	-28.0388
375.000000	80.390	-38.8894
382.000000	80.398	-54.0170
387.000000	80.397	-64.8169
395.000000	80.396	-82.1310
400.000000	80.397	-92.9178
406.000000	80.394	-105.7991
412.000000	80.389	-118.6451
418.000000	80.380	-131.4775
425.000000	80.370	-146.4360
431.000000	80.363	-159.2058
437.000000	80.355	-171.9109
444.000000	80.343	173.3701
450.000000	80.331	160.8300
455.000000	80.319	150.3885
462.000000	80.297	135.7688
468.000000	80.276	123.2759
475.000000	80.251	108.7996
482.000000	80.231	94.4409
487.000000	80.218	84.2196
494.000000	80.200	69.9327
500.000000	80.184	57.7067
508.000000	80.167	41.4198
515.000000	80.159	27.2087
522.000000	80.150	13.0840
530.000000	80.134	-2.9457
538.000000	80.113	-18.9016
545.000000	80.094	-32.8303
552.000000	80.077	-46.7224
560.000000	80.058	-62.4952
570.000000	80.028	-82.0575
580.000000	79.992	-101.5374
590.000000	79.956	-120.9059
600.000000	79.922	-140.1738
608.000000	79.898	-155.5150
615.000000	79.879	-168.8759
622.000000	79.861	177.8208
630.000000	79.846	162.6731
640.000000	79.831	143.8046
650.000000	79.813	125.0576
660.000000	79.793	106.4519
670.000000	79.774	87.9641
680.000000	79.757	69.5515
690.000000	79.745	51.1985
700.000000	79.734	32.9814
710.000000	79.718	14.8834
720.000000	79.699	-3.1431
730.000000	79.682	-21.1240
740.000000	79.671	-39.0822
750.000000	79.665	-56.9811
762.000000	79.665	-78.3301
775.000000	79.665	-101.2751
788.000000	79.662	-124.0503
800.000000	79.660	-144.9749
812.000000	79.663	-165.7595
825.000000	79.673	171.9058
838.000000	79.686	149.7266
850.000000	79.701	129.3250
862.000000	79.719	108.9805
875.000000	79.742	87.0618
885.000000	79.760	70.2993
900.000000	79.786	45.2805
912.000000	79.813	25.3428
925.000000	79.851	3.8323
938.000000	79.895	-17.5535
950.000000	79.937	-37.2039
962.000000	79.980	-56.8296
975.000000	80.030	-78.0374
988.000000	80.082	-99.1091
1000.000000	80.129	-118.4480
1015.000000	80.183	-142.5142
1030.000000	80.235	-166.4980
1044.000000	80.285	171.1792
1060.000000	80.349	145.7971
1075.000000	80.413	122.1238
1090.000000	80.478	98.5168
1106.000000	80.544	73.4299
1120.000000	80.598	51.5845
1138.000000	80.667	23.6499
1150.000000	80.717	5.1077
1172.000000	80.811	-28.7166
1180.000000	80.846	-40.9465
1206.000000	80.961	-80.3735
1220.000000	81.026	-101.4226
1241.000000	81.131	-132.8372
1250.000000	81.179	-146.2581
1265.000000	81.267	-168.5549
1280.000000	81.359	169.2627
1315.000000	81.546	117.8921
1320.000000	81.564	110.5984
1340.000000	81.610	81.5854
1360.000000	81.608	52.8337
1380.000000	81.573	24.2754
1400.000000	81.525	-4.1187
1430.000000	81.474	-46.3682
1450.000000	81.473	-74.2886
1475.000000	81.508	-108.8911
1500.000000	81.574	-143.1755
1525.000000	81.663	-177.2056
1550.000000	81.763	149.0676
1575.000000	81.874	115.6348
1600.000000	81.999	82.4324
1625.000000	82.133	49.4902
1650.000000	82.271	16.7537
1675.000000	82.410	-15.8884
1700.000000	82.557	-48.4023
1725.000000	82.713	-80.6213
1750.000000	82.872	-112.5215
1775.000000	83.033	-144.2612
1800.000000	83.200	-175.9238
1825.000000	83.376	152.5767
1850.000000	83.554	121.2776
1875.000000	83.728	90.1267
1900.000000	83.895	59.1279
1925.000000	84.053	28.2874
1950.000000	84.201	-2.3838
1975.000000	84.345	-32.8848
2000.000000	84.486	-63.2256
2030.000000	84.655	-99.3469
2060.000000	84.825	-135.1804
2090.000000	84.999	-170.8691
2120.000000	85.176	153.6538
2140.000000	85.294	130.1575
2180.000000	85.521	83.5723
2200.000000	85.629	60.4629
2240.000000	85.837	14.4717
2270.000000	85.992	-19.7754
2300.000000	86.150	-53.7627
2330.000000	86.310	-87.5264
2360.000000	86.472	-121.1079
2400.000000	86.685	-165.4849
2430.000000	86.843	161.5205
2470.000000	87.055	117.7427
2500.000000	87.217	85.1113
2540.000000	87.430	41.9873
2580.000000	87.637	-0.7510
2620.000000	87.837	-43.1821
2650.000000	87.980	-74.7861
2690.000000	88.157	-116.6753
2720.000000	88.282	-147.9038
2760.000000	88.439	170.7388
2800.000000	88.588	129.7539
2850.000000	88.759	79.0244
2900.000000	88.924	28.6733
2950.000000	89.087	-21.0386
3000.000000	89.235	-70.0537
3040.000000	89.335	-108.9463
3070.000000	89.401	-137.9849
3110.000000	89.483	-176.4854
3150.000000	89.561	145.3491
3200.000000	89.653	98.1567
3250.000000	89.736	51.5488
3300.000000	89.808	5.4346
3350.000000	89.870	-40.2305
3400.000000	89.916	-85.4116
3450.000000	89.941	-130.1396
3500.000000	89.948	-174.4683
3550.000000	89.945	141.6465
3600.000000	89.936	98.2817
3650.000000	89.925	55.4463
3700.000000	89.914	13.0864
3750.000000	89.906	-28.9414
3820.000000	89.906	-87.1514
3870.000000	89.908	-128.0957
3950.000000	89.892	167.1743
4000.000000	89.863	127.2026
4060.000000	89.801	79.8154
4120.000000	89.704	32.9697
4180.000000	89.570	-13.4497
4250.000000	89.366	-66.8618
4310.000000	89.147	-111.8662
4370.000000	88.888	-156.2305
4440.000000	88.545	152.7520
4500.000000	88.222	109.7451
4550.000000	87.935	74.4727
4620.000000	87.505	25.9775
4680.000000	87.115	-14.7217
4750.000000	86.648	-61.1606
4820.000000	86.193	-106.4756
4870.000000	85.894	-138.2153
4940.000000	85.540	178.1147
5000.000000	85.314	141.3594
5080.000000	85.128	93.1309
5150.000000	85.062	51.4165
5220.000000	85.055	10.1450
5300.000000	85.079	-36.3994
5380.000000	85.101	-82.3540
5450.000000	85.103	-122.2041
5520.000000	85.088	-161.7129
5600.000000	85.058	153.7783
5700.000000	85.001	99.2900
5800.000000	84.930	45.9287
5900.000000	84.860	-6.3486
6000.000000	84.798	-57.5029
6080.000000	84.754	-97.6274
6150.000000	84.722	-132.1460
6220.000000	84.696	-166.1216
6300.000000	84.679	155.6895
6400.000000	84.688	108.8325
6500.000000	84.744	62.8730
6600.000000	84.859	17.7744
6700.000000	85.055	-26.5845
6800.000000	85.355	-70.3447
6900.000000	85.718	-113.6650
7000.000000	86.050	-156.6211
7100.000000	86.324	160.8472
7200.000000	86.576	118.7969
7300.000000	86.837	77.2573
7400.000000	87.092	36.1562
7500.000000	87.291	-4.6143
7620.000000	87.337	-53.0073
7750.000000	86.998	-104.3984
7880.000000	86.164	-153.7432
8000.000000	85.004	163.3130
8120.000000	83.613	123.0908
8250.000000	82.035	82.4331
8380.000000	80.546	44.4302
8500.000000	79.326	11.3643
8620.000000	78.265	-20.0000
8750.000000	77.269	-52.2397
8850.000000	76.591	-75.9097
9000.000000	75.695	-109.6670
9120.000000	75.079	-135.1621
9250.000000	74.513	-161.3027
9380.000000	74.051	173.9238
9500.000000	73.720	152.1719
9620.000000	73.481	131.4336
9750.000000	73.319	110.0684
9880.000000	73.244	89.8438
10000.000000	73.243	72.1660
10150.000000	73.334	51.3555
10300.000000	73.537	31.9307
10440.000000	73.841	14.9990
10600.000000	74.341	-3.0381
10750.000000	74.972	-18.8135
10900.000000	75.771	-33.6621
11060.000000	76.820	-48.6553
11200.000000	77.910	-61.2461
11380.000000	79.551	-77.1270
11500.000000	80.772	-87.8564
11720.000000	83.124	-108.6338
11800.000000	83.949	-116.7090
12060.000000	86.131	-144.9814
12200.000000	86.805	-160.9385
12410.000000	87.005	176.1348
12500.000000	86.810	167.3359
12650.000000	86.200	154.7451
12800.000000	85.355	145.1396
13150.000000	83.190	134.4609
13200.000000	82.908	134.1357
13400.000000	81.936	135.2930
13600.000000	81.313	139.6914
13800.000000	81.140	146.4873
14000.000000	81.448	154.8311
14300.000000	82.692	167.7139
14500.000000	83.799	174.4434
14750.000000	85.026	179.0098
15000.000000	85.576	179.9424
15250.000000	85.106	-179.4941
15500.000000	83.624	-174.9922
15750.000000	81.433	-163.2461
16000.000000	78.939	-142.7158
16250.000000	76.515	-113.5771
16500.000000	74.411	-77.5400
16750.000000	72.730	-36.3965
17000.000000	71.532	10.0137
17250.000000	70.933	65.1904
17500.000000	71.048	133.8672
17750.000000	71.782	-158.6230
18000.000000	72.770	-108.8398
18250.000000	73.600	-70.5571
18500.000000	74.010	-36.6655
18750.000000	73.931	-2.4170
19000.000000	73.454	36.1680
19250.000000	72.733	84.5962
19500.000000	71.928	155.3027
19750.000000	71.202	-133.3364
20000.000000	70.769	-103.7129
