* Measurement data measured by REW V5.31.3
* Source: Microphone (USB Sound Device        ), MICROPHONE (Master Volume), L, volume: 0.250
* Format: 256k Log Swept Sine, 1 sweep at -12.0 dBFS with no timing reference
* Dated: 18-Jan-2025 14:20:35
* REW Settings:
*  C-weighting compensation: Off
*  Target level: 75.0 dB
* Note: 
* Measurement: Redmi Buds 6 Pro EV L
* Smoothing: 1/12 octave
* Frequency Step: 1/48 octave
* Start Frequency: 20.300 Hz
*
* Freq(Hz)	SPL(dB)	Phase(degrees)
20.299999	86.673	-165.8297
20.600000	86.696	-165.8539
20.900000	86.725	-165.8928
21.200001	86.757	-165.9499
21.400000	86.779	-165.9997
21.799999	86.821	-166.1251
22.000000	86.841	-166.1967
22.400000	86.879	-166.3418
22.700001	86.907	-166.4400
23.000000	86.934	-166.5227
23.299999	86.963	-166.5921
23.600000	86.994	-166.6575
24.000000	87.038	-166.7612
24.299999	87.071	-166.8652
24.700001	87.115	-167.0441
25.000000	87.145	-167.1991
25.400000	87.179	-167.4077
25.799999	87.210	-167.5909
26.200001	87.239	-167.7368
26.500000	87.262	-167.8284
26.900000	87.294	-167.9464
27.200001	87.317	-168.0426
27.600000	87.347	-168.1852
28.000000	87.374	-168.3338
28.500000	87.404	-168.5055
29.000000	87.436	-168.6554
29.500000	87.472	-168.8041
30.000000	87.511	-168.9708
30.400000	87.541	-169.1150
30.700001	87.562	-169.2238
31.100000	87.590	-169.3651
31.500000	87.619	-169.5025
32.000000	87.658	-169.6755
32.500000	87.697	-169.8519
33.000000	87.733	-170.0241
33.500000	87.766	-170.1850
34.000000	87.798	-170.3373
34.500000	87.833	-170.4917
35.000000	87.871	-170.6581
35.500000	87.911	-170.8412
36.000000	87.954	-171.0389
36.500000	87.994	-171.2401
37.000000	88.030	-171.4293
37.500000	88.062	-171.5987
38.200001	88.104	-171.8218
38.700001	88.136	-171.9978
39.500000	88.188	-172.3259
40.000000	88.220	-172.5438
40.599998	88.259	-172.8076
41.200001	88.300	-173.0944
41.799999	88.345	-173.4312
42.500000	88.397	-173.8686
43.099998	88.439	-174.2184
43.700001	88.480	-174.5072
44.400002	88.524	-174.8020
45.000000	88.552	-175.0776
45.500000	88.565	-175.3418
46.200001	88.577	-175.7558
46.799999	88.594	-176.1362
47.500000	88.628	-176.5792
48.200001	88.673	-176.9684
48.700001	88.708	-177.1986
49.400002	88.753	-177.4898
50.000000	88.784	-177.7638
50.799999	88.810	-178.2085
51.500000	88.827	-178.6546
52.200001	88.845	-179.1188
53.000000	88.864	-179.6330
53.799999	88.879	179.8877
54.500000	88.892	179.4777
55.200001	88.907	179.0496
56.000000	88.926	178.5339
57.000000	88.949	177.8829
58.000000	88.970	177.2541
59.000000	88.988	176.6432
60.000000	89.005	176.0231
60.799999	89.016	175.5130
61.500000	89.023	175.0662
62.200001	89.030	174.6245
63.000000	89.040	174.1199
64.000000	89.052	173.4730
65.000000	89.064	172.8037
66.000000	89.071	172.1231
67.000000	89.070	171.4520
68.000000	89.056	170.8140
69.000000	89.032	170.2055
70.000000	89.002	169.5870
71.000000	88.972	168.9343
72.000000	88.945	168.2631
73.000000	88.922	167.5999
74.000000	88.898	166.9575
75.000000	88.867	166.3328
76.199997	88.818	165.5940
77.500000	88.755	164.8149
78.800003	88.696	164.0701
80.000000	88.645	163.3904
81.199997	88.585	162.7004
82.500000	88.503	161.9591
83.800003	88.414	161.2581
85.000000	88.334	160.6903
86.199997	88.254	160.2026
87.500000	88.162	159.6976
88.500000	88.088	159.3007
90.000000	87.975	158.7191
91.199997	87.881	158.3002
92.500000	87.780	157.9152
93.800003	87.680	157.6105
95.000000	87.588	157.3929
96.199997	87.494	157.2031
97.500000	87.388	156.9931
98.800003	87.283	156.7808
100.000000	87.194	156.6006
101.500000	87.093	156.4069
103.000000	86.996	156.2554
104.400002	86.902	156.1609
106.000000	86.793	156.1034
107.500000	86.692	156.0822
109.000000	86.599	156.0816
110.599998	86.507	156.0759
112.000000	86.428	156.0525
113.800003	86.324	155.9935
115.000000	86.249	155.9524
117.199997	86.106	155.9407
118.000000	86.056	155.9576
120.599998	85.898	156.0225
122.000000	85.819	156.0591
124.099998	85.709	156.1550
125.000000	85.663	156.2218
126.500000	85.584	156.3677
128.000000	85.500	156.5438
131.500000	85.299	156.9960
132.000000	85.272	157.0638
134.000000	85.170	157.3373
136.000000	85.070	157.5846
138.000000	84.958	157.8206
140.000000	84.838	158.1058
143.000000	84.670	158.7404
145.000000	84.572	159.2943
147.500000	84.461	160.0425
150.000000	84.362	160.8469
152.500000	84.278	161.6962
155.000000	84.208	162.5881
157.500000	84.150	163.5795
160.000000	84.108	164.6678
162.500000	84.090	165.7595
165.000000	84.092	166.7455
167.500000	84.108	167.6015
170.000000	84.138	168.3380
172.500000	84.177	168.9717
175.000000	84.215	169.5423
177.500000	84.246	170.0920
180.000000	84.273	170.5819
182.500000	84.303	170.9653
185.000000	84.327	171.2894
187.500000	84.336	171.6155
190.000000	84.335	171.9651
192.500000	84.334	172.3299
195.000000	84.345	172.7097
197.500000	84.376	173.0981
200.000000	84.427	173.4782
203.000000	84.508	173.9080
206.000000	84.599	174.2947
209.000000	84.690	174.6171
212.000000	84.778	174.8511
214.000000	84.831	174.9702
218.000000	84.927	175.1988
220.000000	84.970	175.3341
224.000000	85.052	175.6417
227.000000	85.106	175.8532
230.000000	85.154	176.0048
233.000000	85.201	176.0918
236.000000	85.249	176.1390
240.000000	85.313	176.1886
243.000000	85.360	176.2198
247.000000	85.417	176.2656
250.000000	85.455	176.2920
254.000000	85.504	176.2796
258.000000	85.558	176.2258
262.000000	85.613	176.1727
265.000000	85.654	176.1361
269.000000	85.704	176.0711
272.000000	85.739	176.0081
276.000000	85.786	175.9164
280.000000	85.832	175.8276
285.000000	85.880	175.7143
290.000000	85.918	175.5886
295.000000	85.952	175.4641
300.000000	85.986	175.3511
304.000000	86.015	175.2687
307.000000	86.038	175.2032
311.000000	86.068	175.1125
315.000000	86.093	175.0247
320.000000	86.116	174.9138
325.000000	86.131	174.8020
330.000000	86.149	174.6993
335.000000	86.174	174.6071
340.000000	86.199	174.5049
345.000000	86.217	174.3720
350.000000	86.224	174.2482
355.000000	86.228	174.1771
360.000000	86.237	174.1708
365.000000	86.255	174.1965
370.000000	86.276	174.2061
375.000000	86.296	174.2051
382.000000	86.316	174.2476
387.000000	86.327	174.3149
395.000000	86.352	174.4065
400.000000	86.377	174.4277
406.000000	86.410	174.4515
412.000000	86.438	174.4695
418.000000	86.460	174.4451
425.000000	86.482	174.4202
431.000000	86.502	174.4231
437.000000	86.523	174.4344
444.000000	86.538	174.4920
450.000000	86.549	174.6276
455.000000	86.566	174.7846
462.000000	86.604	175.0010
468.000000	86.648	175.1484
475.000000	86.704	175.2836
482.000000	86.756	175.4099
487.000000	86.789	175.4874
494.000000	86.836	175.5574
500.000000	86.880	175.5863
508.000000	86.940	175.6000
515.000000	86.995	175.6045
522.000000	87.049	175.6141
530.000000	87.107	175.6054
538.000000	87.165	175.6001
545.000000	87.220	175.6314
552.000000	87.277	175.6755
560.000000	87.344	175.7071
570.000000	87.427	175.7180
580.000000	87.506	175.6886
590.000000	87.584	175.6147
600.000000	87.662	175.5311
608.000000	87.726	175.4394
615.000000	87.783	175.3293
622.000000	87.842	175.2103
630.000000	87.911	175.0835
640.000000	87.996	174.9353
650.000000	88.082	174.7979
660.000000	88.170	174.6983
670.000000	88.257	174.6155
680.000000	88.337	174.4887
690.000000	88.413	174.2764
700.000000	88.491	174.0005
710.000000	88.572	173.6763
720.000000	88.646	173.2949
730.000000	88.716	172.8846
740.000000	88.781	172.5005
750.000000	88.845	172.1641
762.000000	88.924	171.7902
775.000000	89.016	171.3793
788.000000	89.107	170.9599
800.000000	89.192	170.5316
812.000000	89.281	170.0496
825.000000	89.375	169.4202
838.000000	89.456	168.6565
850.000000	89.515	167.8762
862.000000	89.558	167.0640
875.000000	89.593	166.1940
885.000000	89.613	165.5558
900.000000	89.633	164.6318
912.000000	89.636	163.9168
925.000000	89.623	163.1876
938.000000	89.595	162.5006
950.000000	89.560	161.8850
962.000000	89.519	161.2811
975.000000	89.471	160.6376
988.000000	89.420	159.9965
1000.000000	89.369	159.4137
1015.000000	89.293	158.7481
1030.000000	89.202	158.2010
1044.000000	89.108	157.8128
1060.000000	88.998	157.5341
1075.000000	88.892	157.4642
1090.000000	88.784	157.5650
1106.000000	88.673	157.7825
1120.000000	88.586	158.0443
1138.000000	88.489	158.4744
1150.000000	88.433	158.7896
1172.000000	88.357	159.3942
1180.000000	88.339	159.6248
1206.000000	88.307	160.4261
1220.000000	88.307	160.9016
1241.000000	88.336	161.6922
1250.000000	88.361	162.0507
1265.000000	88.415	162.6631
1280.000000	88.482	163.2937
1315.000000	88.654	164.8161
1320.000000	88.676	165.0300
1340.000000	88.749	165.8588
1360.000000	88.783	166.6557
1380.000000	88.788	167.4261
1400.000000	88.791	168.1679
1430.000000	88.852	169.1943
1450.000000	88.946	169.7656
1475.000000	89.109	170.3315
1500.000000	89.304	170.7028
1525.000000	89.521	170.8870
1550.000000	89.745	170.9617
1575.000000	89.965	170.9493
1600.000000	90.171	170.8685
1625.000000	90.357	170.7805
1650.000000	90.529	170.6727
1675.000000	90.691	170.5017
1700.000000	90.845	170.2783
1725.000000	90.994	170.0373
1750.000000	91.137	169.7916
1775.000000	91.273	169.5408
1800.000000	91.409	169.3069
1825.000000	91.550	169.1177
1850.000000	91.701	168.9964
1875.000000	91.859	168.9300
1900.000000	92.025	168.8723
1925.000000	92.197	168.7820
1950.000000	92.379	168.6152
1975.000000	92.568	168.3254
2000.000000	92.763	167.8989
2030.000000	93.006	167.2126
2060.000000	93.259	166.3195
2090.000000	93.513	165.1580
2120.000000	93.755	163.7235
2140.000000	93.904	162.6514
2180.000000	94.169	160.3278
2200.000000	94.281	159.1140
2240.000000	94.459	156.6261
2270.000000	94.553	154.7037
2300.000000	94.614	152.7289
2330.000000	94.643	150.7370
2360.000000	94.639	148.7680
2400.000000	94.576	146.2408
2430.000000	94.488	144.4547
2470.000000	94.333	142.2271
2500.000000	94.200	140.6524
2540.000000	94.009	138.6671
2580.000000	93.806	136.8382
2620.000000	93.588	135.2080
2650.000000	93.411	134.1376
2690.000000	93.152	132.9328
2720.000000	92.942	132.2087
2760.000000	92.647	131.4891
2800.000000	92.345	131.0254
2850.000000	91.970	130.7565
2900.000000	91.606	130.8293
2950.000000	91.251	131.1299
3000.000000	90.907	131.5175
3040.000000	90.639	131.9014
3070.000000	90.442	132.2897
3110.000000	90.189	132.9977
3150.000000	89.957	133.9196
3200.000000	89.699	135.2952
3250.000000	89.469	136.8489
3300.000000	89.262	138.5395
3350.000000	89.071	140.3431
3400.000000	88.894	142.2571
3450.000000	88.736	144.2594
3500.000000	88.600	146.2755
3550.000000	88.488	148.2177
3600.000000	88.401	150.0455
3650.000000	88.340	151.8227
3700.000000	88.313	153.6827
3750.000000	88.322	155.7028
3820.000000	88.404	158.7491
3870.000000	88.520	160.9381
3950.000000	88.781	164.0708
4000.000000	88.966	165.6978
4060.000000	89.190	167.2356
4120.000000	89.393	168.3384
4180.000000	89.566	169.0947
4250.000000	89.740	169.5205
4310.000000	89.864	169.4417
4370.000000	89.968	169.0533
4440.000000	90.057	168.4320
4500.000000	90.099	167.8439
4550.000000	90.104	167.3234
4620.000000	90.057	166.5876
4680.000000	89.960	166.0211
4750.000000	89.779	165.5197
4820.000000	89.529	165.2685
4870.000000	89.312	165.2829
4940.000000	88.970	165.6061
5000.000000	88.653	166.1515
5080.000000	88.211	167.1719
5150.000000	87.811	168.3132
5220.000000	87.414	169.7980
5300.000000	86.981	172.0644
5380.000000	86.576	174.9219
5450.000000	86.242	177.8052
5520.000000	85.932	-179.0450
5600.000000	85.615	-175.2041
5700.000000	85.282	-170.1393
5800.000000	85.027	-164.8595
5900.000000	84.855	-159.4874
6000.000000	84.760	-154.2112
6080.000000	84.727	-150.1790
6150.000000	84.724	-146.7865
6220.000000	84.745	-143.4256
6300.000000	84.804	-139.4884
6400.000000	84.935	-134.3590
6500.000000	85.130	-129.1245
6600.000000	85.398	-123.9710
6700.000000	85.751	-119.0361
6800.000000	86.195	-114.4450
6900.000000	86.737	-110.3782
7000.000000	87.375	-107.0950
7100.000000	88.094	-104.9271
7200.000000	88.866	-104.2435
7300.000000	89.640	-105.3223
7400.000000	90.340	-108.1402
7500.000000	90.880	-112.3514
7620.000000	91.204	-118.4996
7750.000000	91.047	-125.3760
7880.000000	90.340	-131.1499
8000.000000	89.278	-134.5523
8120.000000	87.951	-135.6736
8250.000000	86.369	-134.3385
8380.000000	84.781	-130.7502
8500.000000	83.404	-125.9632
8620.000000	82.157	-120.2908
8750.000000	80.970	-113.6076
8850.000000	80.167	-108.1754
9000.000000	79.120	-99.3871
9120.000000	78.392	-91.6877
9250.000000	77.685	-82.6992
9380.000000	77.066	-73.1781
9500.000000	76.591	-64.1578
9620.000000	76.212	-55.1349
9750.000000	75.895	-45.4223
9880.000000	75.657	-35.7269
10000.000000	75.506	-26.7738
10150.000000	75.420	-15.6476
10300.000000	75.455	-4.8590
10440.000000	75.592	4.6477
10600.000000	75.873	14.9901
10750.000000	76.264	24.5734
10900.000000	76.785	34.1640
11060.000000	77.494	44.1966
11200.000000	78.268	52.4764
11380.000000	79.492	61.5356
11500.000000	80.418	65.8813
11720.000000	82.114	68.9956
11800.000000	82.638	68.4810
12060.000000	83.558	62.2170
12200.000000	83.417	57.5823
12410.000000	82.403	51.9544
12500.000000	81.744	50.6665
12650.000000	80.471	50.5746
12800.000000	79.101	53.3033
13150.000000	76.072	69.4095
13200.000000	75.684	72.5049
13400.000000	74.270	85.9921
13600.000000	73.117	100.4576
13800.000000	72.278	115.2766
14000.000000	71.777	130.1321
14300.000000	71.643	151.9396
14500.000000	71.933	165.4432
14750.000000	72.657	179.6699
15000.000000	73.659	-170.5121
15250.000000	74.688	-165.7729
15500.000000	75.377	-165.9935
15750.000000	75.352	-169.9558
16000.000000	74.418	-175.0255
16250.000000	72.643	-178.2319
16500.000000	70.261	-177.5296
16750.000000	67.522	-172.0164
17000.000000	64.630	-161.1356
17250.000000	61.780	-142.9598
17500.000000	59.322	-114.9117
17750.000000	57.665	-83.0593
18000.000000	56.804	-57.3250
18250.000000	56.388	-36.1169
18500.000000	56.201	-15.7151
18750.000000	56.137	4.2239
19000.000000	56.094	23.1722
19250.000000	56.013	41.1324
19500.000000	55.864	57.8236
19750.000000	55.651	71.4709
20000.000000	55.482	79.3049
