* Measurement data measured by REW V5.31.3
* Source: Microphone (6- USB Sound Device        ), MICROPHONE (Master Volume), L, volume: 0.700
* Format: 256k Log Swept Sine, 1 sweep at -12.0 dBFS with no timing reference
* Dated: 23-May-2025 15:02:35
* REW Settings:
*  C-weighting compensation: Off
*  Target level: 75.0 dB
* Note: 
* Measurement: Rose Ceramics X Rock L
* Smoothing: 1/12 octave
* Frequency Step: 1/48 octave
* Start Frequency: 20.300 Hz
*
* Freq(Hz)	SPL(dB)	Phase(degrees)
20.299999	69.494	-22.7120
20.600000	69.454	-22.3391
20.900000	69.407	-21.8680
21.200001	69.365	-21.3744
21.400000	69.340	-21.0552
21.799999	69.303	-20.4713
22.000000	69.288	-20.2109
22.400000	69.262	-19.7414
22.700001	69.245	-19.4140
23.000000	69.228	-19.0892
23.299999	69.214	-18.7577
23.600000	69.203	-18.4203
24.000000	69.192	-17.9780
24.299999	69.188	-17.6685
24.700001	69.185	-17.3062
25.000000	69.185	-17.0793
25.400000	69.185	-16.8377
25.799999	69.183	-16.6579
26.200001	69.179	-16.5253
26.500000	69.173	-16.4455
26.900000	69.165	-16.3517
27.200001	69.158	-16.2853
27.600000	69.151	-16.2017
28.000000	69.147	-16.1297
28.500000	69.143	-16.0647
29.000000	69.137	-16.0225
29.500000	69.127	-15.9875
30.000000	69.112	-15.9537
30.400000	69.098	-15.9335
30.700001	69.086	-15.9262
31.100000	69.067	-15.9270
31.500000	69.046	-15.9351
32.000000	69.021	-15.9457
32.500000	69.000	-15.9513
33.000000	68.982	-15.9547
33.500000	68.966	-15.9634
34.000000	68.947	-15.9866
34.500000	68.922	-16.0290
35.000000	68.887	-16.0808
35.500000	68.844	-16.1170
36.000000	68.799	-16.1155
36.500000	68.760	-16.0755
37.000000	68.729	-16.0127
37.500000	68.702	-15.9353
38.200001	68.663	-15.7874
38.700001	68.633	-15.6562
39.500000	68.588	-15.4783
40.000000	68.559	-15.4152
40.599998	68.522	-15.3545
41.200001	68.490	-15.2611
41.799999	68.470	-15.1283
42.500000	68.455	-14.9545
43.099998	68.440	-14.7922
43.700001	68.422	-14.6072
44.400002	68.401	-14.3791
45.000000	68.386	-14.2053
45.500000	68.374	-14.0862
46.200001	68.358	-13.9472
46.799999	68.347	-13.8380
47.500000	68.341	-13.7178
48.200001	68.345	-13.6189
48.700001	68.354	-13.5695
49.400002	68.367	-13.5299
50.000000	68.374	-13.5135
50.799999	68.372	-13.4955
51.500000	68.362	-13.4759
52.200001	68.353	-13.4645
53.000000	68.344	-13.4776
53.799999	68.338	-13.5100
54.500000	68.337	-13.5433
55.200001	68.340	-13.5871
56.000000	68.342	-13.6580
57.000000	68.339	-13.7663
58.000000	68.335	-13.8929
59.000000	68.334	-14.0492
60.000000	68.332	-14.2336
60.799999	68.327	-14.4038
61.500000	68.317	-14.5659
62.200001	68.304	-14.7267
63.000000	68.289	-14.8936
64.000000	68.272	-15.0794
65.000000	68.258	-15.2826
66.000000	68.239	-15.5484
67.000000	68.210	-15.8642
68.000000	68.169	-16.1739
69.000000	68.124	-16.4475
70.000000	68.079	-16.6916
71.000000	68.035	-16.9045
72.000000	67.994	-17.0829
73.000000	67.957	-17.2575
74.000000	67.923	-17.4627
75.000000	67.890	-17.6984
76.199997	67.844	-17.9791
77.500000	67.783	-18.2303
78.800003	67.716	-18.4463
80.000000	67.653	-18.6611
81.199997	67.589	-18.8880
82.500000	67.520	-19.1239
83.800003	67.448	-19.3282
85.000000	67.375	-19.4683
86.199997	67.300	-19.5605
87.500000	67.220	-19.6165
88.500000	67.160	-19.6448
90.000000	67.077	-19.6957
91.199997	67.020	-19.7559
92.500000	66.962	-19.8252
93.800003	66.899	-19.8684
95.000000	66.836	-19.8810
96.199997	66.771	-19.8895
97.500000	66.698	-19.9124
98.800003	66.625	-19.9583
100.000000	66.556	-20.0158
101.500000	66.474	-20.0745
103.000000	66.398	-20.0828
104.400002	66.334	-20.0498
106.000000	66.265	-19.9953
107.500000	66.203	-19.9602
109.000000	66.138	-19.9470
110.599998	66.067	-19.9392
112.000000	66.006	-19.9227
113.800003	65.925	-19.8807
115.000000	65.868	-19.8459
117.199997	65.761	-19.7816
118.000000	65.722	-19.7689
120.599998	65.600	-19.7940
122.000000	65.533	-19.8034
124.099998	65.436	-19.7842
125.000000	65.395	-19.7706
126.500000	65.326	-19.7403
128.000000	65.253	-19.6921
131.500000	65.079	-19.5313
132.000000	65.055	-19.5073
134.000000	64.967	-19.4286
136.000000	64.884	-19.3969
138.000000	64.793	-19.4001
140.000000	64.690	-19.4057
143.000000	64.530	-19.3832
145.000000	64.426	-19.3317
147.500000	64.295	-19.1593
150.000000	64.165	-18.8789
152.500000	64.042	-18.5823
155.000000	63.916	-18.3472
157.500000	63.781	-18.1351
160.000000	63.643	-17.9103
162.500000	63.509	-17.6091
165.000000	63.381	-17.2621
167.500000	63.256	-16.9215
170.000000	63.133	-16.5164
172.500000	63.018	-16.0671
175.000000	62.903	-15.6537
177.500000	62.771	-15.2286
180.000000	62.629	-14.7340
182.500000	62.489	-14.2119
185.000000	62.350	-13.6984
187.500000	62.205	-13.1687
190.000000	62.051	-12.5972
192.500000	61.894	-11.9925
195.000000	61.743	-11.3636
197.500000	61.604	-10.7154
200.000000	61.478	-10.0347
203.000000	61.343	-9.1524
206.000000	61.230	-8.1937
209.000000	61.134	-7.1377
212.000000	61.048	-5.9639
214.000000	60.991	-5.0859
218.000000	60.897	-3.0301
220.000000	60.873	-1.8915
224.000000	60.888	0.2833
227.000000	60.946	1.5451
230.000000	61.020	2.3660
233.000000	61.088	2.7923
236.000000	61.133	2.9741
240.000000	61.149	3.1376
243.000000	61.125	3.3317
247.000000	61.057	3.6812
250.000000	60.994	4.0131
254.000000	60.907	4.5600
258.000000	60.820	5.1879
262.000000	60.731	5.8859
265.000000	60.668	6.4369
269.000000	60.588	7.1835
272.000000	60.531	7.7304
276.000000	60.462	8.4483
280.000000	60.397	9.1961
285.000000	60.316	10.1837
290.000000	60.239	11.2142
295.000000	60.168	12.2523
300.000000	60.102	13.2579
304.000000	60.052	14.0393
307.000000	60.014	14.6184
311.000000	59.963	15.3979
315.000000	59.914	16.1966
320.000000	59.853	17.1755
325.000000	59.792	18.1024
330.000000	59.737	18.9914
335.000000	59.688	19.8719
340.000000	59.645	20.7855
345.000000	59.608	21.7551
350.000000	59.571	22.7422
355.000000	59.528	23.6904
360.000000	59.480	24.5852
365.000000	59.433	25.4406
370.000000	59.388	26.3076
375.000000	59.344	27.2373
382.000000	59.288	28.5501
387.000000	59.247	29.4436
395.000000	59.184	30.7942
400.000000	59.152	31.6204
406.000000	59.117	32.6621
412.000000	59.082	33.7560
418.000000	59.042	34.8551
425.000000	58.990	36.1193
431.000000	58.940	37.2017
437.000000	58.891	38.2749
444.000000	58.840	39.4838
450.000000	58.804	40.5011
455.000000	58.782	41.3574
462.000000	58.759	42.5761
468.000000	58.743	43.6397
475.000000	58.726	44.9049
482.000000	58.705	46.1614
487.000000	58.689	47.0232
494.000000	58.667	48.1873
500.000000	58.648	49.1681
508.000000	58.621	50.4561
515.000000	58.594	51.5775
522.000000	58.570	52.7088
530.000000	58.544	54.0209
538.000000	58.518	55.3552
545.000000	58.495	56.5606
552.000000	58.475	57.8148
560.000000	58.459	59.2736
570.000000	58.453	61.0592
580.000000	58.460	62.8000
590.000000	58.469	64.5270
600.000000	58.478	66.2307
608.000000	58.488	67.5447
615.000000	58.498	68.6520
622.000000	58.507	69.7482
630.000000	58.518	71.0243
640.000000	58.532	72.6541
650.000000	58.553	74.2877
660.000000	58.584	75.8892
670.000000	58.613	77.4950
680.000000	58.634	79.1452
690.000000	58.656	80.7770
700.000000	58.687	82.3320
710.000000	58.726	83.8357
720.000000	58.769	85.3179
730.000000	58.818	86.7900
740.000000	58.870	88.2556
750.000000	58.924	89.7412
762.000000	58.995	91.5515
775.000000	59.083	93.5120
788.000000	59.174	95.4417
800.000000	59.258	97.1830
812.000000	59.346	98.9186
825.000000	59.445	100.7812
838.000000	59.553	102.6028
850.000000	59.662	104.2646
862.000000	59.780	105.9014
875.000000	59.912	107.5999
885.000000	60.014	108.8323
900.000000	60.163	110.5708
912.000000	60.285	111.9090
925.000000	60.420	113.3484
938.000000	60.558	114.7780
950.000000	60.687	116.0573
962.000000	60.818	117.2816
975.000000	60.967	118.5531
988.000000	61.122	119.7781
1000.000000	61.268	120.8692
1015.000000	61.445	122.1613
1030.000000	61.616	123.3557
1044.000000	61.774	124.3990
1060.000000	61.952	125.5346
1075.000000	62.115	126.5721
1090.000000	62.277	127.5642
1106.000000	62.451	128.5350
1120.000000	62.602	129.3401
1138.000000	62.789	130.3427
1150.000000	62.908	130.9661
1172.000000	63.122	132.0335
1180.000000	63.199	132.4130
1206.000000	63.442	133.6126
1220.000000	63.574	134.2415
1241.000000	63.787	135.1748
1250.000000	63.884	135.5686
1265.000000	64.048	136.2082
1280.000000	64.213	136.8151
1315.000000	64.570	138.1268
1320.000000	64.613	138.3122
1340.000000	64.758	139.0622
1360.000000	64.849	139.8096
1380.000000	64.900	140.5349
1400.000000	64.934	141.2397
1430.000000	65.003	142.2537
1450.000000	65.077	142.9505
1475.000000	65.209	143.8717
1500.000000	65.370	144.7499
1525.000000	65.535	145.5485
1550.000000	65.697	146.3524
1575.000000	65.868	147.1944
1600.000000	66.047	148.0285
1625.000000	66.222	148.8138
1650.000000	66.386	149.5411
1675.000000	66.547	150.2307
1700.000000	66.718	150.8685
1725.000000	66.897	151.4480
1750.000000	67.072	151.9945
1775.000000	67.237	152.5117
1800.000000	67.397	152.9985
1825.000000	67.555	153.4547
1850.000000	67.714	153.8721
1875.000000	67.873	154.2444
1900.000000	68.033	154.5615
1925.000000	68.191	154.8105
1950.000000	68.345	154.9919
1975.000000	68.496	155.1242
2000.000000	68.641	155.2228
2030.000000	68.807	155.2745
2060.000000	68.966	155.2311
2090.000000	69.123	155.1111
2120.000000	69.278	154.9296
2140.000000	69.378	154.7797
2180.000000	69.565	154.4043
2200.000000	69.651	154.1768
2240.000000	69.806	153.6453
2270.000000	69.914	153.1736
2300.000000	70.017	152.6700
2330.000000	70.111	152.1415
2360.000000	70.196	151.5616
2400.000000	70.295	150.7064
2430.000000	70.358	150.0105
2470.000000	70.423	149.0331
2500.000000	70.457	148.2740
2540.000000	70.482	147.2275
2580.000000	70.488	146.1395
2620.000000	70.478	145.0028
2650.000000	70.459	144.1304
2690.000000	70.416	142.9680
2720.000000	70.370	142.0929
2760.000000	70.290	140.9039
2800.000000	70.191	139.7004
2850.000000	70.037	138.2421
2900.000000	69.851	136.8475
2950.000000	69.640	135.5281
3000.000000	69.403	134.3086
3040.000000	69.195	133.3873
3070.000000	69.030	132.7231
3110.000000	68.796	131.8939
3150.000000	68.542	131.1420
3200.000000	68.195	130.3078
3250.000000	67.818	129.5974
3300.000000	67.415	129.0587
3350.000000	66.990	128.7405
3400.000000	66.543	128.6855
3450.000000	66.080	128.9238
3500.000000	65.605	129.4626
3550.000000	65.124	130.2951
3600.000000	64.646	131.4098
3650.000000	64.184	132.8036
3700.000000	63.746	134.4598
3750.000000	63.342	136.3443
3820.000000	62.849	139.3090
3870.000000	62.550	141.6139
3950.000000	62.154	145.5575
4000.000000	61.951	148.1370
4060.000000	61.746	151.2138
4120.000000	61.574	154.1600
4180.000000	61.431	156.9440
4250.000000	61.297	159.9789
4310.000000	61.206	162.3709
4370.000000	61.135	164.5418
4440.000000	61.078	166.7845
4500.000000	61.046	168.4674
4550.000000	61.027	169.7133
4620.000000	61.001	171.2499
4680.000000	60.968	172.4153
4750.000000	60.909	173.6586
4820.000000	60.825	174.8326
4870.000000	60.748	175.6529
4940.000000	60.616	176.8101
5000.000000	60.484	177.8515
5080.000000	60.296	179.3517
5150.000000	60.126	-179.2382
5220.000000	59.952	-177.7359
5300.000000	59.747	-175.9100
5380.000000	59.534	-174.0004
5450.000000	59.345	-172.2821
5520.000000	59.160	-170.5219
5600.000000	58.960	-168.4628
5700.000000	58.736	-165.8540
5800.000000	58.537	-163.1981
5900.000000	58.364	-160.4411
6000.000000	58.219	-157.5916
6080.000000	58.114	-155.2734
6150.000000	58.028	-153.2189
6220.000000	57.944	-151.1326
6300.000000	57.852	-148.6987
6400.000000	57.747	-145.5737
6500.000000	57.660	-142.3525
6600.000000	57.602	-139.0225
6700.000000	57.583	-135.5852
6800.000000	57.614	-132.0359
6900.000000	57.709	-128.3900
7000.000000	57.877	-124.7143
7100.000000	58.126	-121.0810
7200.000000	58.469	-117.5403
7300.000000	58.919	-114.1437
7400.000000	59.484	-110.9719
7500.000000	60.165	-108.1731
7620.000000	61.130	-105.5764
7750.000000	62.307	-104.0925
7880.000000	63.523	-104.4944
8000.000000	64.584	-106.9722
8120.000000	65.485	-111.6665
8250.000000	66.153	-118.9888
8380.000000	66.393	-127.7466
8500.000000	66.201	-135.9575
8620.000000	65.658	-143.2239
8750.000000	64.798	-149.2227
8850.000000	64.043	-152.3177
9000.000000	62.902	-154.6873
9120.000000	62.066	-155.0505
9250.000000	61.285	-154.4313
9380.000000	60.642	-153.1703
9500.000000	60.168	-151.7404
9620.000000	59.796	-150.2831
9750.000000	59.486	-148.8410
9880.000000	59.245	-147.6271
10000.000000	59.054	-146.6966
10150.000000	58.833	-145.6735
10300.000000	58.619	-144.6469
10440.000000	58.425	-143.5709
10600.000000	58.229	-142.1605
10750.000000	58.093	-140.7130
10900.000000	58.010	-139.2322
11060.000000	57.976	-137.6584
11200.000000	57.986	-136.2727
11380.000000	58.050	-134.4496
11500.000000	58.128	-133.2052
11720.000000	58.370	-130.8911
11800.000000	58.498	-130.0311
12060.000000	59.105	-127.1559
12200.000000	59.573	-125.6360
12410.000000	60.513	-123.6785
12500.000000	61.013	-123.0927
12650.000000	61.983	-122.7080
12800.000000	63.113	-123.3920
13150.000000	66.175	-131.6782
13200.000000	66.627	-133.8658
13400.000000	68.325	-145.5520
13600.000000	69.572	-161.8060
13800.000000	69.996	178.8109
14000.000000	69.397	159.1874
14300.000000	66.918	135.5457
14500.000000	64.735	125.4555
14750.000000	62.027	118.6594
15000.000000	59.764	116.3646
15250.000000	58.094	116.3768
15500.000000	56.939	117.0124
15750.000000	56.226	117.1113
16000.000000	55.977	115.7453
16250.000000	56.179	112.0510
16500.000000	56.651	105.3466
16750.000000	57.075	95.4908
17000.000000	57.141	83.1881
17250.000000	56.651	69.9387
17500.000000	55.590	57.5000
17750.000000	54.099	47.2004
18000.000000	52.392	39.6303
18250.000000	50.680	34.7447
18500.000000	49.124	32.1149
18750.000000	47.809	31.1868
19000.000000	46.766	31.4238
19250.000000	45.985	32.3213
19500.000000	45.426	33.4043
19750.000000	45.058	34.2863
20000.000000	44.879	34.7385
