* Measurement data measured by REW V5.31
* Source: Microphone (4- USB Audio Device), MICROPHONE (Master Volume), R, volume: 0.250
* Format: 256k Log Swept Sine, 1 sweep at -12.0 dBFS with no timing reference
* Dated: 26-Mar-2024 11:37:08
* REW Settings:
*  C-weighting compensation: Off
*  Target level: 75.0 dB
* Note: 
* Measurement: Rose Technics Earfree I3 T
* Smoothing: 1/12 octave
* Frequency Step: 1/48 octave
* Start Frequency: 20.300 Hz
*
* Freq(Hz)	SPL(dB)	Phase(degrees)
20.299999	89.076	85.0098
20.600000	89.150	84.2300
20.900000	89.250	83.4400
21.200001	89.375	82.8671
21.400000	89.476	82.6341
21.799999	89.719	82.4238
22.000000	89.858	82.3607
22.400000	90.144	82.1050
22.700001	90.338	81.6983
23.000000	90.491	81.1008
23.299999	90.595	80.3744
23.600000	90.652	79.6091
24.000000	90.684	78.6680
24.299999	90.699	78.0784
24.700001	90.746	77.4487
25.000000	90.814	77.0591
25.400000	90.949	76.5912
25.799999	91.121	76.1409
26.200001	91.307	75.6890
26.500000	91.441	75.3457
26.900000	91.598	74.8848
27.200001	91.696	74.5433
27.600000	91.799	74.1036
28.000000	91.885	73.6748
28.500000	91.993	73.0873
29.000000	92.124	72.3295
29.500000	92.271	71.3684
30.000000	92.414	70.3388
30.400000	92.518	69.6052
30.700001	92.593	69.1543
31.100000	92.692	68.6783
31.500000	92.795	68.2815
32.000000	92.926	67.7629
32.500000	93.051	67.1338
33.000000	93.171	66.4150
33.500000	93.296	65.6812
34.000000	93.433	64.9824
34.500000	93.577	64.3336
35.000000	93.712	63.7468
35.500000	93.831	63.2326
36.000000	93.939	62.7594
36.500000	94.048	62.2344
37.000000	94.162	61.5604
37.500000	94.274	60.7229
38.200001	94.405	59.4617
38.700001	94.476	58.6630
39.500000	94.570	57.6559
40.000000	94.631	57.1140
40.599998	94.726	56.4372
41.200001	94.862	55.6610
41.799999	95.033	54.7844
42.500000	95.234	53.7833
43.099998	95.375	53.1378
43.700001	95.484	52.7641
44.400002	95.596	52.5066
45.000000	95.698	52.1897
45.500000	95.790	51.7522
46.200001	95.918	50.9184
46.799999	96.011	50.1932
47.500000	96.096	49.6294
48.200001	96.178	49.4378
48.700001	96.250	49.3514
49.400002	96.365	48.9522
50.000000	96.454	48.2390
50.799999	96.541	47.0268
51.500000	96.609	46.0426
52.200001	96.686	45.2181
53.000000	96.770	44.3831
53.799999	96.837	43.5889
54.500000	96.886	42.8880
55.200001	96.937	42.1563
56.000000	97.001	41.3023
57.000000	97.087	40.2570
58.000000	97.177	39.2020
59.000000	97.263	38.1067
60.000000	97.342	37.0059
60.799999	97.398	36.1164
61.500000	97.441	35.3208
62.200001	97.479	34.5131
63.000000	97.520	33.5881
64.000000	97.570	32.4527
65.000000	97.622	31.3594
66.000000	97.678	30.2910
67.000000	97.735	29.2188
68.000000	97.783	28.1403
69.000000	97.823	27.0418
70.000000	97.853	25.9036
71.000000	97.878	24.7487
72.000000	97.903	23.6236
73.000000	97.931	22.5573
74.000000	97.959	21.5508
75.000000	97.983	20.5885
76.199997	98.003	19.4664
77.500000	98.019	18.2693
78.800003	98.031	17.0601
80.000000	98.037	15.9564
81.199997	98.041	14.9239
82.500000	98.049	13.8877
83.800003	98.063	12.8469
85.000000	98.073	11.8667
86.199997	98.079	10.8819
87.500000	98.081	9.7926
88.500000	98.078	8.9624
90.000000	98.069	7.7717
91.199997	98.060	6.8587
92.500000	98.042	5.9182
93.800003	98.015	5.0225
95.000000	97.988	4.2048
96.199997	97.967	3.3904
97.500000	97.950	2.5383
98.800003	97.937	1.7289
100.000000	97.922	0.9972
101.500000	97.898	0.0686
103.000000	97.872	-0.8685
104.400002	97.849	-1.7176
106.000000	97.823	-2.6483
107.500000	97.795	-3.4851
109.000000	97.763	-4.2876
110.599998	97.728	-5.1024
112.000000	97.699	-5.7678
113.800003	97.662	-6.5587
115.000000	97.637	-7.0619
117.199997	97.589	-7.9938
118.000000	97.570	-8.3408
120.599998	97.509	-9.4691
122.000000	97.474	-10.0452
124.099998	97.416	-10.8118
125.000000	97.391	-11.1147
126.500000	97.352	-11.6234
128.000000	97.318	-12.1557
131.500000	97.244	-13.3981
132.000000	97.231	-13.5657
134.000000	97.171	-14.1962
136.000000	97.105	-14.7851
138.000000	97.044	-15.3365
140.000000	96.992	-15.8343
143.000000	96.929	-16.5401
145.000000	96.888	-17.0120
147.500000	96.834	-17.5557
150.000000	96.778	-18.0457
152.500000	96.716	-18.5356
155.000000	96.651	-19.0334
157.500000	96.594	-19.5258
160.000000	96.546	-19.9699
162.500000	96.497	-20.3596
165.000000	96.443	-20.7092
167.500000	96.382	-21.0508
170.000000	96.313	-21.4241
172.500000	96.248	-21.8541
175.000000	96.188	-22.2843
177.500000	96.127	-22.6843
180.000000	96.063	-23.0894
182.500000	95.995	-23.4965
185.000000	95.929	-23.8180
187.500000	95.864	-23.9854
190.000000	95.802	-24.0064
192.500000	95.747	-23.9506
195.000000	95.706	-23.8692
197.500000	95.681	-23.7603
200.000000	95.672	-23.6505
203.000000	95.673	-23.6035
206.000000	95.672	-23.6349
209.000000	95.666	-23.6510
212.000000	95.664	-23.6083
214.000000	95.670	-23.5593
218.000000	95.709	-23.5063
220.000000	95.739	-23.5234
224.000000	95.802	-23.6803
227.000000	95.839	-23.9404
230.000000	95.865	-24.2788
233.000000	95.887	-24.6201
236.000000	95.910	-24.9359
240.000000	95.939	-25.3813
243.000000	95.962	-25.7515
247.000000	95.993	-26.2461
250.000000	96.017	-26.6126
254.000000	96.050	-27.1001
258.000000	96.076	-27.5430
262.000000	96.092	-27.9647
265.000000	96.102	-28.3016
269.000000	96.114	-28.7893
272.000000	96.125	-29.1712
276.000000	96.145	-29.6655
280.000000	96.173	-30.1060
285.000000	96.211	-30.6148
290.000000	96.239	-31.1333
295.000000	96.259	-31.6475
300.000000	96.281	-32.1088
304.000000	96.303	-32.4427
307.000000	96.323	-32.6835
311.000000	96.349	-33.0135
315.000000	96.373	-33.3705
320.000000	96.401	-33.8917
325.000000	96.420	-34.4988
330.000000	96.426	-35.0799
335.000000	96.430	-35.6079
340.000000	96.439	-36.1393
345.000000	96.455	-36.7090
350.000000	96.478	-37.3066
355.000000	96.496	-37.9020
360.000000	96.504	-38.4963
365.000000	96.501	-39.1269
370.000000	96.487	-39.8571
375.000000	96.462	-40.6836
382.000000	96.421	-41.8915
387.000000	96.393	-42.7034
395.000000	96.345	-43.8417
400.000000	96.314	-44.4342
406.000000	96.279	-45.0457
412.000000	96.256	-45.6632
418.000000	96.247	-46.3470
425.000000	96.235	-47.1851
431.000000	96.213	-47.9274
437.000000	96.180	-48.7171
444.000000	96.133	-49.7173
450.000000	96.088	-50.6052
455.000000	96.049	-51.3084
462.000000	95.989	-52.1563
468.000000	95.931	-52.7450
475.000000	95.864	-53.3061
482.000000	95.817	-53.7046
487.000000	95.802	-53.8727
494.000000	95.806	-54.0063
500.000000	95.829	-54.1047
508.000000	95.877	-54.3035
515.000000	95.926	-54.5781
522.000000	95.973	-54.9721
530.000000	96.028	-55.5596
538.000000	96.079	-56.2607
545.000000	96.121	-56.9387
552.000000	96.159	-57.6514
560.000000	96.193	-58.4848
570.000000	96.222	-59.4907
580.000000	96.242	-60.4620
590.000000	96.260	-61.3731
600.000000	96.286	-62.2271
608.000000	96.310	-62.8927
615.000000	96.326	-63.4909
622.000000	96.336	-64.0918
630.000000	96.341	-64.7609
640.000000	96.348	-65.5873
650.000000	96.361	-66.4360
660.000000	96.378	-67.2934
670.000000	96.402	-68.1037
680.000000	96.437	-68.8728
690.000000	96.475	-69.6139
700.000000	96.507	-70.2861
710.000000	96.532	-70.8616
720.000000	96.554	-71.3775
730.000000	96.577	-71.8680
740.000000	96.601	-72.2954
750.000000	96.616	-72.6513
762.000000	96.620	-73.0694
775.000000	96.616	-73.5204
788.000000	96.610	-73.9124
800.000000	96.605	-74.2180
812.000000	96.603	-74.4777
825.000000	96.599	-74.7278
838.000000	96.599	-74.9760
850.000000	96.606	-75.1784
862.000000	96.619	-75.3136
875.000000	96.643	-75.4173
885.000000	96.667	-75.5329
900.000000	96.704	-75.8149
912.000000	96.738	-76.1022
925.000000	96.784	-76.3805
938.000000	96.843	-76.5369
950.000000	96.900	-76.5816
962.000000	96.952	-76.5955
975.000000	97.000	-76.6237
988.000000	97.051	-76.6751
1000.000000	97.106	-76.7403
1015.000000	97.179	-76.8316
1030.000000	97.257	-76.9744
1044.000000	97.334	-77.1777
1060.000000	97.421	-77.4394
1075.000000	97.504	-77.6723
1090.000000	97.588	-77.8648
1106.000000	97.676	-78.0365
1120.000000	97.754	-78.1828
1138.000000	97.867	-78.3220
1150.000000	97.950	-78.3405
1172.000000	98.104	-78.2046
1180.000000	98.158	-78.1140
1206.000000	98.316	-77.7862
1220.000000	98.391	-77.6727
1241.000000	98.491	-77.6439
1250.000000	98.532	-77.6657
1265.000000	98.601	-77.7104
1280.000000	98.674	-77.7272
1315.000000	98.864	-77.5604
1320.000000	98.893	-77.5178
1340.000000	99.007	-77.3410
1360.000000	99.119	-77.2439
1380.000000	99.221	-77.3037
1400.000000	99.312	-77.5486
1430.000000	99.434	-78.1843
1450.000000	99.517	-78.6577
1475.000000	99.628	-79.2270
1500.000000	99.739	-79.7314
1525.000000	99.855	-80.1746
1550.000000	99.981	-80.5971
1575.000000	100.114	-80.9975
1600.000000	100.249	-81.4180
1625.000000	100.391	-81.9396
1650.000000	100.537	-82.6122
1675.000000	100.679	-83.4295
1700.000000	100.811	-84.3305
1725.000000	100.935	-85.2487
1750.000000	101.060	-86.1227
1775.000000	101.190	-86.9646
1800.000000	101.326	-87.8372
1825.000000	101.462	-88.8059
1850.000000	101.596	-89.9238
1875.000000	101.733	-91.1954
1900.000000	101.873	-92.5916
1925.000000	102.016	-94.0723
1950.000000	102.166	-95.6039
1975.000000	102.323	-97.1575
2000.000000	102.485	-98.7327
2030.000000	102.683	-100.7267
2060.000000	102.886	-102.9430
2090.000000	103.097	-105.4316
2120.000000	103.318	-108.1126
2140.000000	103.468	-109.9433
2180.000000	103.758	-113.5976
2200.000000	103.901	-115.4082
2240.000000	104.185	-118.9918
2270.000000	104.395	-121.6549
2300.000000	104.601	-124.3227
2330.000000	104.798	-127.0436
2360.000000	104.980	-129.8769
2400.000000	105.190	-133.8923
2430.000000	105.318	-137.0580
2470.000000	105.457	-141.3812
2500.000000	105.539	-144.6469
2540.000000	105.617	-149.0026
2580.000000	105.660	-153.3075
2620.000000	105.676	-157.4638
2650.000000	105.678	-160.4440
2690.000000	105.668	-164.2324
2720.000000	105.655	-166.9318
2760.000000	105.639	-170.2912
2800.000000	105.629	-173.2953
2850.000000	105.630	-176.5057
2900.000000	105.645	-179.3114
2950.000000	105.667	177.8300
3000.000000	105.694	174.5933
3040.000000	105.719	171.7220
3070.000000	105.733	169.4493
3110.000000	105.734	166.2888
3150.000000	105.693	162.9940
3200.000000	105.558	158.7586
3250.000000	105.313	154.5715
3300.000000	104.968	150.7745
3350.000000	104.567	147.7756
3400.000000	104.160	145.7134
3450.000000	103.768	144.2532
3500.000000	103.401	142.9897
3550.000000	103.081	141.8245
3600.000000	102.819	140.8809
3650.000000	102.617	140.2808
3700.000000	102.472	140.0734
3750.000000	102.386	140.2078
3820.000000	102.357	140.6475
3870.000000	102.392	140.9191
3950.000000	102.511	141.0280
4000.000000	102.612	140.9395
4060.000000	102.751	140.7965
4120.000000	102.898	140.4914
4180.000000	103.043	139.8405
4250.000000	103.197	138.5691
4310.000000	103.304	137.0227
4370.000000	103.386	135.0618
4440.000000	103.453	132.4297
4500.000000	103.499	130.1245
4550.000000	103.531	128.2429
4620.000000	103.561	125.6791
4680.000000	103.572	123.6267
4750.000000	103.573	121.5147
4820.000000	103.558	119.6977
4870.000000	103.534	118.5058
4940.000000	103.480	116.8368
5000.000000	103.413	115.3000
5080.000000	103.282	113.1525
5150.000000	103.122	111.4017
5220.000000	102.910	109.8681
5300.000000	102.590	108.2849
5380.000000	102.182	106.9167
5450.000000	101.762	106.0918
5520.000000	101.296	105.6829
5600.000000	100.723	105.6620
5700.000000	99.975	106.3447
5800.000000	99.240	108.0526
5900.000000	98.555	110.7621
6000.000000	97.954	114.5137
6080.000000	97.549	118.3304
6150.000000	97.254	122.2410
6220.000000	97.016	126.5960
6300.000000	96.810	131.9227
6400.000000	96.651	138.7499
6500.000000	96.597	145.5311
6600.000000	96.648	152.3446
6700.000000	96.806	159.3315
6800.000000	97.078	166.4332
6900.000000	97.469	173.2769
7000.000000	97.970	179.3020
7100.000000	98.572	-175.9140
7200.000000	99.266	-172.4186
7300.000000	100.040	-170.0862
7400.000000	100.866	-168.8843
7500.000000	101.697	-168.9078
7620.000000	102.599	-170.8229
7750.000000	103.313	-175.1260
7880.000000	103.642	179.2120
8000.000000	103.554	173.5659
8120.000000	103.108	167.8621
8250.000000	102.308	161.9867
8380.000000	101.314	156.8503
8500.000000	100.336	153.1235
8620.000000	99.380	150.5839
8750.000000	98.420	149.3710
8850.000000	97.757	149.6342
9000.000000	96.889	151.7681
9120.000000	96.294	154.6508
9250.000000	95.731	158.7809
9380.000000	95.243	164.0631
9500.000000	94.851	169.8558
9620.000000	94.500	176.1646
9750.000000	94.153	-176.9124
9880.000000	93.831	-170.5195
10000.000000	93.548	-165.6415
10150.000000	93.206	-160.9794
10300.000000	92.884	-157.1720
10440.000000	92.607	-153.8221
10600.000000	92.331	-149.8320
10750.000000	92.129	-146.0659
10900.000000	91.993	-142.9969
11060.000000	91.937	-140.7809
11200.000000	91.977	-139.2185
11380.000000	92.178	-136.4257
11500.000000	92.422	-133.7358
11720.000000	93.128	-127.9503
11800.000000	93.477	-125.9471
12060.000000	94.968	-121.4109
12200.000000	95.986	-120.6333
12410.000000	97.678	-122.1750
12500.000000	98.398	-124.1028
12650.000000	99.478	-129.2329
12800.000000	100.287	-136.6682
13150.000000	100.570	-159.1385
13200.000000	100.418	-162.3792
13400.000000	99.434	-173.9858
13600.000000	98.091	177.8010
13800.000000	96.690	173.1964
14000.000000	95.456	171.4672
14300.000000	94.159	173.2828
14500.000000	93.658	176.5168
14750.000000	93.333	-179.2429
15000.000000	93.200	-176.9995
15250.000000	93.091	-178.0223
15500.000000	92.821	178.2495
15750.000000	92.209	173.4895
16000.000000	91.133	168.6810
16250.000000	89.652	164.9343
16500.000000	87.965	163.4621
16750.000000	86.292	164.4413
17000.000000	84.798	167.2877
17250.000000	83.530	170.8725
17500.000000	82.427	174.5357
17750.000000	81.399	178.5541
18000.000000	80.386	-176.9824
18250.000000	79.395	-171.7470
18500.000000	78.482	-165.2943
18750.000000	77.699	-157.8722
19000.000000	77.038	-150.5192
19250.000000	76.474	-144.2807
19500.000000	76.018	-139.3936
19750.000000	75.707	-135.7780
20000.000000	75.554	-133.8037
