* Measurement data measured by REW V5.31.3
* Source: Microphone (6- USB Sound Device        ), MICROPHONE (Master Volume), L, volume: 0.700
* Format: 256k Log Swept Sine, 1 sweep at -12.0 dBFS with no timing reference
* Dated: 04-Jun-2025 16:19:22
* REW Settings:
*  C-weighting compensation: Off
*  Target level: 75.0 dB
* Note: 
* Measurement: SGB FE Dyn L
* Smoothing: 1/12 octave
* Frequency Step: 1/48 octave
* Start Frequency: 20.300 Hz
*
* Freq(Hz)	SPL(dB)	Phase(degrees)
20.299999	79.972	-81.5186
20.600000	80.014	-82.0278
20.900000	80.065	-82.6631
21.200001	80.116	-83.3491
21.400000	80.147	-83.8196
21.799999	80.196	-84.7581
22.000000	80.213	-85.2065
22.400000	80.236	-86.0121
22.700001	80.248	-86.5102
23.000000	80.260	-86.9140
23.299999	80.276	-87.2393
23.600000	80.294	-87.5097
24.000000	80.318	-87.8221
24.299999	80.333	-88.0342
24.700001	80.346	-88.2885
25.000000	80.351	-88.4532
25.400000	80.355	-88.6364
25.799999	80.361	-88.7871
26.200001	80.370	-88.9211
26.500000	80.379	-89.0166
26.900000	80.393	-89.1354
27.200001	80.403	-89.2110
27.600000	80.416	-89.2801
28.000000	80.429	-89.3024
28.500000	80.447	-89.2678
29.000000	80.469	-89.1987
29.500000	80.497	-89.1478
30.000000	80.526	-89.1469
30.400000	80.547	-89.1758
30.700001	80.561	-89.2020
31.100000	80.577	-89.2279
31.500000	80.594	-89.2354
32.000000	80.616	-89.2264
32.500000	80.638	-89.2190
33.000000	80.655	-89.2304
33.500000	80.666	-89.2608
34.000000	80.672	-89.2990
34.500000	80.675	-89.3308
35.000000	80.677	-89.3460
35.500000	80.679	-89.3424
36.000000	80.681	-89.3243
36.500000	80.679	-89.2951
37.000000	80.671	-89.2512
37.500000	80.659	-89.1886
38.200001	80.634	-89.0775
38.700001	80.612	-88.9883
39.500000	80.568	-88.7924
40.000000	80.538	-88.6117
40.599998	80.509	-88.3654
41.200001	80.487	-88.1624
41.799999	80.465	-88.0330
42.500000	80.426	-87.8884
43.099998	80.384	-87.6804
43.700001	80.339	-87.3859
44.400002	80.284	-86.9927
45.000000	80.230	-86.6526
45.500000	80.183	-86.3758
46.200001	80.118	-86.0002
46.799999	80.066	-85.6783
47.500000	80.008	-85.2683
48.200001	79.954	-84.7940
48.700001	79.917	-84.4197
49.400002	79.863	-83.8687
50.000000	79.811	-83.3896
50.799999	79.727	-82.7471
51.500000	79.644	-82.1637
52.200001	79.562	-81.5457
53.000000	79.476	-80.8081
53.799999	79.399	-80.0527
54.500000	79.338	-79.3822
55.200001	79.277	-78.7132
56.000000	79.201	-77.9470
57.000000	79.102	-76.9594
58.000000	79.005	-75.9728
59.000000	78.898	-74.9584
60.000000	78.790	-73.8203
60.799999	78.713	-72.8811
61.500000	78.652	-72.0882
62.200001	78.591	-71.3052
63.000000	78.518	-70.3852
64.000000	78.426	-69.1837
65.000000	78.338	-67.9478
66.000000	78.255	-66.6979
67.000000	78.175	-65.4500
68.000000	78.092	-64.2117
69.000000	78.005	-62.9837
70.000000	77.916	-61.7544
71.000000	77.827	-60.4945
72.000000	77.741	-59.1834
73.000000	77.657	-57.8180
74.000000	77.575	-56.4235
75.000000	77.496	-55.0444
76.199997	77.403	-53.4150
77.500000	77.306	-51.6276
78.800003	77.211	-49.8421
80.000000	77.121	-48.2243
81.199997	77.030	-46.5920
82.500000	76.932	-44.7394
83.800003	76.839	-42.8177
85.000000	76.757	-41.0765
86.199997	76.677	-39.4028
87.500000	76.589	-37.6213
88.500000	76.521	-36.2322
90.000000	76.421	-34.0941
91.199997	76.344	-32.3581
92.500000	76.261	-30.4895
93.800003	76.177	-28.6435
95.000000	76.096	-26.9368
96.199997	76.013	-25.2152
97.500000	75.925	-23.3256
98.800003	75.843	-21.4030
100.000000	75.772	-19.6029
101.500000	75.689	-17.3293
103.000000	75.612	-15.0583
104.400002	75.546	-12.9569
106.000000	75.472	-10.5503
107.500000	75.404	-8.2853
109.000000	75.337	-6.0399
110.599998	75.264	-3.6992
112.000000	75.199	-1.6976
113.800003	75.115	0.8554
115.000000	75.058	2.5844
117.199997	74.953	5.8499
118.000000	74.915	7.0582
120.599998	74.807	10.9996
122.000000	74.753	13.0943
124.099998	74.670	16.1994
125.000000	74.635	17.5329
126.500000	74.578	19.7643
128.000000	74.522	21.9867
131.500000	74.400	27.0646
132.000000	74.382	27.7851
134.000000	74.313	30.6769
136.000000	74.246	33.5857
138.000000	74.185	36.5129
140.000000	74.129	39.4638
143.000000	74.048	43.8787
145.000000	73.994	46.7990
147.500000	73.925	50.3789
150.000000	73.852	53.9110
152.500000	73.787	57.5205
155.000000	73.733	61.1941
157.500000	73.683	64.8090
160.000000	73.633	68.3196
162.500000	73.581	71.7991
165.000000	73.531	75.2825
167.500000	73.485	78.7607
170.000000	73.441	82.2450
172.500000	73.400	85.7251
175.000000	73.361	89.1784
177.500000	73.321	92.6083
180.000000	73.274	96.0416
182.500000	73.220	99.4916
185.000000	73.159	102.9230
187.500000	73.090	106.3215
190.000000	73.016	109.7027
192.500000	72.943	113.0802
195.000000	72.878	116.4404
197.500000	72.825	119.7615
200.000000	72.790	123.0505
203.000000	72.773	127.0132
206.000000	72.774	131.0201
209.000000	72.778	135.0247
212.000000	72.776	138.9881
214.000000	72.770	141.6131
218.000000	72.745	146.8136
220.000000	72.729	149.3754
224.000000	72.691	154.4573
227.000000	72.658	158.3014
230.000000	72.624	162.1972
233.000000	72.588	166.1003
236.000000	72.554	169.9621
240.000000	72.515	175.0343
243.000000	72.488	178.8029
247.000000	72.451	-176.1888
250.000000	72.419	-172.4308
254.000000	72.378	-167.3976
258.000000	72.344	-162.3351
262.000000	72.322	-157.2716
265.000000	72.314	-153.4934
269.000000	72.312	-148.5207
272.000000	72.312	-144.8599
276.000000	72.312	-140.0551
280.000000	72.311	-135.3015
285.000000	72.307	-129.4120
290.000000	72.301	-123.5770
295.000000	72.292	-117.8028
300.000000	72.274	-112.0815
304.000000	72.255	-107.4996
307.000000	72.241	-104.0571
311.000000	72.225	-99.4811
315.000000	72.211	-94.9431
320.000000	72.198	-89.3392
325.000000	72.181	-83.7874
330.000000	72.160	-78.2396
335.000000	72.141	-72.6899
340.000000	72.131	-67.1776
345.000000	72.121	-61.7239
350.000000	72.105	-56.3194
355.000000	72.083	-50.9500
360.000000	72.060	-45.6060
365.000000	72.039	-40.2854
370.000000	72.017	-34.9911
375.000000	71.991	-29.7281
382.000000	71.946	-22.3569
387.000000	71.909	-17.0662
395.000000	71.841	-8.6119
400.000000	71.805	-3.3688
406.000000	71.772	2.8848
412.000000	71.746	9.1083
418.000000	71.719	15.3051
425.000000	71.686	22.5087
431.000000	71.659	28.6545
437.000000	71.634	34.7574
444.000000	71.603	41.8328
450.000000	71.577	47.8481
455.000000	71.556	52.8055
462.000000	71.519	59.6666
468.000000	71.481	65.4941
475.000000	71.438	72.2827
482.000000	71.399	79.0933
487.000000	71.371	83.9478
494.000000	71.326	90.7078
500.000000	71.282	96.4852
508.000000	71.227	104.1722
515.000000	71.185	110.8745
522.000000	71.144	117.5637
530.000000	71.094	125.2019
538.000000	71.040	132.8122
545.000000	70.996	139.4042
552.000000	70.955	145.9278
560.000000	70.909	153.3425
570.000000	70.844	162.5754
580.000000	70.772	171.7289
590.000000	70.690	-179.1830
600.000000	70.600	-170.1248
608.000000	70.524	-162.9048
615.000000	70.456	-156.6188
622.000000	70.388	-150.3553
630.000000	70.310	-143.1987
640.000000	70.208	-134.2107
650.000000	70.102	-125.1876
660.000000	69.993	-116.1730
670.000000	69.886	-107.1777
680.000000	69.779	-98.1920
690.000000	69.668	-89.1901
700.000000	69.556	-80.1580
710.000000	69.449	-71.1046
720.000000	69.347	-62.0445
730.000000	69.258	-53.0055
740.000000	69.182	-44.0038
750.000000	69.115	-35.0091
762.000000	69.041	-24.1833
775.000000	68.974	-12.4443
788.000000	68.924	-0.7385
800.000000	68.896	9.9738
812.000000	68.879	20.5616
825.000000	68.862	31.9171
838.000000	68.845	43.1621
850.000000	68.838	53.4753
862.000000	68.840	63.7372
875.000000	68.848	74.7754
885.000000	68.858	83.2224
900.000000	68.882	95.7994
912.000000	68.907	105.7339
925.000000	68.936	116.4052
938.000000	68.971	127.0361
950.000000	69.013	136.7737
962.000000	69.063	146.4044
975.000000	69.120	156.7236
988.000000	69.178	166.9399
1000.000000	69.236	176.3030
1015.000000	69.316	-172.0803
1030.000000	69.395	-160.6118
1044.000000	69.470	-150.0425
1060.000000	69.560	-138.0830
1075.000000	69.650	-126.9921
1090.000000	69.739	-116.0033
1106.000000	69.830	-104.3806
1120.000000	69.909	-94.3134
1138.000000	70.012	-81.5363
1150.000000	70.084	-73.1113
1172.000000	70.222	-57.8430
1180.000000	70.274	-52.3486
1206.000000	70.454	-34.6909
1220.000000	70.558	-25.2963
1241.000000	70.720	-11.3322
1250.000000	70.792	-5.3899
1265.000000	70.916	4.4545
1280.000000	71.043	14.2170
1315.000000	71.311	36.6708
1320.000000	71.341	39.8440
1340.000000	71.432	52.4696
1360.000000	71.474	65.0142
1380.000000	71.480	77.4803
1400.000000	71.474	89.8533
1430.000000	71.490	108.1813
1450.000000	71.527	120.2739
1475.000000	71.604	135.2822
1500.000000	71.708	150.1312
1525.000000	71.833	164.8252
1550.000000	71.963	179.3712
1575.000000	72.089	-166.2249
1600.000000	72.212	-151.9741
1625.000000	72.336	-137.8472
1650.000000	72.465	-123.8638
1675.000000	72.600	-110.0647
1700.000000	72.736	-96.4191
1725.000000	72.869	-82.9149
1750.000000	72.996	-69.5668
1775.000000	73.117	-56.3582
1800.000000	73.234	-43.2637
1825.000000	73.353	-30.2863
1850.000000	73.480	-17.4512
1875.000000	73.611	-4.7661
1900.000000	73.744	7.7732
1925.000000	73.878	20.1576
1950.000000	74.014	32.3763
1975.000000	74.150	44.4343
2000.000000	74.283	56.3289
2030.000000	74.437	70.3630
2060.000000	74.584	84.1162
2090.000000	74.726	97.6268
2120.000000	74.860	110.9917
2140.000000	74.948	119.8373
2180.000000	75.111	137.3149
2200.000000	75.185	145.9462
2240.000000	75.325	162.9990
2270.000000	75.429	175.6152
2300.000000	75.531	-171.9153
2330.000000	75.631	-159.6213
2360.000000	75.725	-147.5138
2400.000000	75.845	-131.6282
2430.000000	75.930	-119.8801
2470.000000	76.031	-104.4137
2500.000000	76.096	-92.9662
2540.000000	76.170	-77.9106
2580.000000	76.232	-63.1022
2620.000000	76.282	-48.5269
2650.000000	76.312	-37.7217
2690.000000	76.344	-23.4814
2720.000000	76.362	-12.9355
2760.000000	76.377	0.9783
2800.000000	76.382	14.7561
2850.000000	76.381	31.7338
2900.000000	76.371	48.4227
2950.000000	76.351	64.9213
3000.000000	76.315	81.2354
3040.000000	76.280	94.0928
3070.000000	76.252	103.6206
3110.000000	76.213	116.1851
3150.000000	76.173	128.5999
3200.000000	76.121	143.9336
3250.000000	76.062	159.1074
3300.000000	75.999	174.1348
3350.000000	75.929	-171.0159
3400.000000	75.853	-156.3730
3450.000000	75.771	-141.9438
3500.000000	75.682	-127.7083
3550.000000	75.586	-113.6357
3600.000000	75.490	-99.7214
3650.000000	75.401	-85.9661
3700.000000	75.325	-72.3655
3750.000000	75.268	-58.9563
3820.000000	75.212	-40.5403
3870.000000	75.179	-27.6133
3950.000000	75.128	-7.2434
4000.000000	75.100	5.3140
4060.000000	75.069	20.2083
4120.000000	75.037	34.8735
4180.000000	75.003	49.2668
4250.000000	74.962	65.7351
4310.000000	74.939	79.5811
4370.000000	74.932	93.1616
4440.000000	74.954	108.6426
4500.000000	75.005	121.5837
4550.000000	75.073	132.1277
4620.000000	75.197	146.5029
4680.000000	75.324	158.4536
4750.000000	75.488	171.9548
4820.000000	75.657	-175.0144
4870.000000	75.779	-165.9878
4940.000000	75.949	-153.7471
5000.000000	76.096	-143.6157
5080.000000	76.293	-130.5825
5150.000000	76.465	-119.6067
5220.000000	76.636	-109.0049
5300.000000	76.834	-97.3328
5380.000000	77.039	-86.1479
5450.000000	77.223	-76.7815
5520.000000	77.416	-67.8359
5600.000000	77.653	-58.1382
5700.000000	77.968	-46.8286
5800.000000	78.292	-36.4768
5900.000000	78.626	-27.1165
6000.000000	78.955	-18.7620
6080.000000	79.192	-12.7910
6150.000000	79.367	-8.0503
6220.000000	79.506	-3.7087
6300.000000	79.620	0.8384
6400.000000	79.703	6.0161
6500.000000	79.733	10.7268
6600.000000	79.721	15.0154
6700.000000	79.673	18.8918
6800.000000	79.595	22.3740
6900.000000	79.493	25.5015
7000.000000	79.373	28.3381
7100.000000	79.247	30.9294
7200.000000	79.131	33.2859
7300.000000	79.037	35.4275
7400.000000	78.977	37.3420
7500.000000	78.965	38.9583
7620.000000	79.030	40.4031
7750.000000	79.179	41.2168
7880.000000	79.355	41.0205
8000.000000	79.503	39.7329
8120.000000	79.628	37.2085
8250.000000	79.734	32.9385
8380.000000	79.805	27.0188
8500.000000	79.817	20.1379
8620.000000	79.737	12.0410
8750.000000	79.500	2.1748
8850.000000	79.184	-5.9458
9000.000000	78.466	-18.5156
9120.000000	77.686	-28.5513
9250.000000	76.665	-39.0720
9380.000000	75.508	-48.9832
9500.000000	74.372	-57.4663
9620.000000	73.220	-65.3101
9750.000000	72.005	-73.1978
9880.000000	70.870	-80.6301
10000.000000	69.926	-87.2573
10150.000000	68.917	-95.4968
10300.000000	68.106	-104.0193
10440.000000	67.523	-112.5090
10600.000000	67.040	-123.1045
10750.000000	66.740	-134.0613
10900.000000	66.560	-146.0708
11060.000000	66.476	-160.0627
11200.000000	66.480	-173.3433
11380.000000	66.578	168.1064
11500.000000	66.686	154.8174
11720.000000	66.943	128.5864
11800.000000	67.052	118.4688
12060.000000	67.442	83.4341
12200.000000	67.655	63.1489
12410.000000	67.926	30.8940
12500.000000	68.004	16.4453
12650.000000	68.054	-8.3882
12800.000000	67.974	-34.0535
13150.000000	67.145	-96.2554
13200.000000	66.951	-105.3179
13400.000000	66.022	-141.8062
13600.000000	64.935	-178.4395
13800.000000	63.812	144.9690
14000.000000	62.737	108.3667
14300.000000	61.327	52.9471
14500.000000	60.592	15.4490
14750.000000	59.958	-32.0887
15000.000000	59.640	-80.7388
15250.000000	59.595	-131.2438
15500.000000	59.738	175.9260
15750.000000	59.961	120.5057
16000.000000	60.155	62.4398
16250.000000	60.218	2.7716
16500.000000	60.131	-58.4811
16750.000000	60.007	-121.3019
17000.000000	59.972	174.9918
17250.000000	60.053	110.4591
17500.000000	60.181	44.3048
17750.000000	60.271	-23.7223
18000.000000	60.249	-93.0129
18250.000000	60.041	-163.4243
18500.000000	59.590	124.8435
18750.000000	58.885	53.1919
19000.000000	57.984	-16.6063
19250.000000	56.980	-89.3135
19500.000000	55.978	-177.7811
19750.000000	55.117	112.4803
20000.000000	54.611	84.8829
