* Measurement data measured by REW V5.31.3
* Source: Microphone (6- USB Sound Device        ), MICROPHONE (Master Volume), L, volume: 0.700
* Format: 256k Log Swept Sine, 1 sweep at -12.0 dBFS with no timing reference
* Dated: 04-Jun-2025 16:19:38
* REW Settings:
*  C-weighting compensation: Off
*  Target level: 75.0 dB
* Note: 
* Measurement: SGB FE Dyn L
* Smoothing: 1/12 octave
* Frequency Step: 1/48 octave
* Start Frequency: 20.300 Hz
*
* Freq(Hz)	SPL(dB)	Phase(degrees)
20.299999	81.506	-87.4843
20.600000	81.518	-87.9252
20.900000	81.532	-88.4728
21.200001	81.546	-89.0551
21.400000	81.553	-89.4471
21.799999	81.560	-90.2134
22.000000	81.559	-90.5750
22.400000	81.551	-91.2248
22.700001	81.539	-91.6295
23.000000	81.523	-91.9555
23.299999	81.504	-92.2041
23.600000	81.484	-92.3821
24.000000	81.456	-92.5261
24.299999	81.436	-92.5780
24.700001	81.413	-92.5942
25.000000	81.402	-92.5813
25.400000	81.394	-92.5484
25.799999	81.391	-92.5061
26.200001	81.392	-92.4509
26.500000	81.392	-92.3949
26.900000	81.393	-92.2957
27.200001	81.394	-92.2046
27.600000	81.396	-92.0700
28.000000	81.400	-91.9309
28.500000	81.405	-91.7590
29.000000	81.410	-91.5860
29.500000	81.417	-91.4072
30.000000	81.427	-91.2249
30.400000	81.435	-91.0801
30.700001	81.441	-90.9732
31.100000	81.449	-90.8339
31.500000	81.457	-90.7001
32.000000	81.467	-90.5444
32.500000	81.477	-90.4023
33.000000	81.486	-90.2676
33.500000	81.491	-90.1345
34.000000	81.494	-90.0061
34.500000	81.494	-89.8911
35.000000	81.488	-89.7896
35.500000	81.476	-89.6847
36.000000	81.461	-89.5529
36.500000	81.445	-89.3826
37.000000	81.430	-89.1810
37.500000	81.414	-88.9655
38.200001	81.381	-88.6653
38.700001	81.349	-88.4579
39.500000	81.287	-88.1340
40.000000	81.243	-87.9254
40.599998	81.191	-87.6464
41.200001	81.142	-87.3198
41.799999	81.098	-86.9511
42.500000	81.051	-86.4967
43.099998	81.007	-86.0996
43.700001	80.958	-85.6878
44.400002	80.894	-85.1731
45.000000	80.835	-84.7012
45.500000	80.783	-84.2914
46.200001	80.706	-83.7027
46.799999	80.638	-83.1922
47.500000	80.562	-82.5968
48.200001	80.495	-81.9978
48.700001	80.451	-81.5550
49.400002	80.393	-80.8896
50.000000	80.339	-80.2638
50.799999	80.256	-79.3685
51.500000	80.177	-78.5748
52.200001	80.096	-77.8073
53.000000	80.003	-76.9523
53.799999	79.913	-76.0778
54.500000	79.839	-75.2832
55.200001	79.766	-74.4766
56.000000	79.682	-73.5522
57.000000	79.572	-72.3690
58.000000	79.465	-71.1151
59.000000	79.366	-69.7863
60.000000	79.267	-68.4211
60.799999	79.183	-67.3236
61.500000	79.109	-66.3601
62.200001	79.036	-65.3931
63.000000	78.956	-64.2856
64.000000	78.861	-62.8979
65.000000	78.769	-61.5123
66.000000	78.680	-60.1439
67.000000	78.592	-58.7950
68.000000	78.499	-57.4336
69.000000	78.400	-56.0132
70.000000	78.301	-54.5233
71.000000	78.209	-52.9936
72.000000	78.130	-51.4594
73.000000	78.060	-49.9510
74.000000	77.992	-48.4885
75.000000	77.919	-47.0672
76.199997	77.819	-45.3759
77.500000	77.691	-43.4874
78.800003	77.553	-41.4856
80.000000	77.429	-39.5442
81.199997	77.306	-37.5178
82.500000	77.174	-35.2331
83.800003	77.050	-32.8941
85.000000	76.951	-30.7021
86.199997	76.865	-28.4734
87.500000	76.777	-26.0453
88.500000	76.709	-24.1878
90.000000	76.608	-21.3953
91.199997	76.523	-19.1156
92.500000	76.425	-16.6083
93.800003	76.320	-14.1401
95.000000	76.216	-11.9465
96.199997	76.109	-9.8384
97.500000	75.993	-7.6468
98.800003	75.883	-5.5478
100.000000	75.793	-3.6793
101.500000	75.703	-1.3831
103.000000	75.626	0.9392
104.400002	75.555	3.1648
106.000000	75.468	5.7570
107.500000	75.385	8.1944
109.000000	75.309	10.6176
110.599998	75.233	13.1767
112.000000	75.169	15.3952
113.800003	75.085	18.2337
115.000000	75.029	20.1420
117.199997	74.925	23.6765
118.000000	74.887	24.9623
120.599998	74.769	29.1406
122.000000	74.711	31.3758
124.099998	74.629	34.6773
125.000000	74.594	36.0918
126.500000	74.535	38.4775
128.000000	74.477	40.8940
131.500000	74.356	46.5224
132.000000	74.339	47.3201
134.000000	74.274	50.4954
136.000000	74.207	53.6140
138.000000	74.139	56.6832
140.000000	74.074	59.7673
143.000000	73.990	64.4146
145.000000	73.940	67.5005
147.500000	73.877	71.3577
150.000000	73.811	75.2267
152.500000	73.748	79.0945
155.000000	73.687	82.9302
157.500000	73.626	86.7375
160.000000	73.566	90.5473
162.500000	73.512	94.3514
165.000000	73.468	98.1216
167.500000	73.428	101.8783
170.000000	73.385	105.6378
172.500000	73.344	109.3992
175.000000	73.305	113.1609
177.500000	73.259	116.9161
180.000000	73.203	120.6322
182.500000	73.143	124.2731
185.000000	73.084	127.8546
187.500000	73.026	131.4209
190.000000	72.965	135.0008
192.500000	72.901	138.5820
195.000000	72.843	142.1522
197.500000	72.799	145.7251
200.000000	72.771	149.3112
203.000000	72.755	153.6214
206.000000	72.752	157.9327
209.000000	72.751	162.2316
212.000000	72.747	166.4814
214.000000	72.740	169.2872
218.000000	72.715	174.8569
220.000000	72.696	177.6239
224.000000	72.655	-176.8656
227.000000	72.624	-172.7452
230.000000	72.592	-168.6333
233.000000	72.561	-164.5402
236.000000	72.532	-160.4835
240.000000	72.497	-155.1166
243.000000	72.468	-151.0988
247.000000	72.423	-145.7254
250.000000	72.388	-141.6786
254.000000	72.347	-136.2739
258.000000	72.316	-130.8593
262.000000	72.295	-125.4406
265.000000	72.285	-121.4037
269.000000	72.281	-116.0982
272.000000	72.283	-112.1774
276.000000	72.286	-107.0170
280.000000	72.287	-101.9261
285.000000	72.285	-95.6444
290.000000	72.281	-89.4234
295.000000	72.272	-83.2538
300.000000	72.259	-77.1223
304.000000	72.244	-72.2385
307.000000	72.230	-68.5753
311.000000	72.210	-63.6867
315.000000	72.191	-58.8156
320.000000	72.167	-52.7958
325.000000	72.144	-46.8363
330.000000	72.125	-40.8851
335.000000	72.114	-34.9547
340.000000	72.107	-29.0961
345.000000	72.097	-23.3174
350.000000	72.078	-17.5717
355.000000	72.052	-11.8364
360.000000	72.031	-6.1078
365.000000	72.016	-0.4119
370.000000	72.000	5.2288
375.000000	71.977	10.8382
382.000000	71.928	18.6961
387.000000	71.885	24.3466
395.000000	71.824	33.4213
400.000000	71.798	39.0603
406.000000	71.773	45.7887
412.000000	71.745	52.4688
418.000000	71.714	59.0803
425.000000	71.683	66.7183
431.000000	71.659	73.1782
437.000000	71.636	79.5453
444.000000	71.603	86.9508
450.000000	71.569	93.3723
455.000000	71.540	98.7480
462.000000	71.502	106.1975
468.000000	71.473	112.4767
475.000000	71.441	119.7340
482.000000	71.402	126.9832
487.000000	71.368	132.1519
494.000000	71.314	139.3557
500.000000	71.267	145.5022
508.000000	71.207	153.6711
515.000000	71.162	160.7944
522.000000	71.120	167.8846
530.000000	71.071	175.9322
538.000000	71.021	-176.0566
545.000000	70.980	-169.0740
552.000000	70.942	-162.1428
560.000000	70.898	-154.2925
570.000000	70.836	-144.5757
580.000000	70.759	-134.9258
590.000000	70.668	-125.2675
600.000000	70.571	-115.6044
608.000000	70.493	-107.9215
615.000000	70.425	-101.2438
622.000000	70.357	-94.5985
630.000000	70.278	-87.0203
640.000000	70.173	-77.5363
650.000000	70.068	-68.0382
660.000000	69.970	-58.5403
670.000000	69.874	-49.0659
680.000000	69.769	-39.6127
690.000000	69.655	-30.1550
700.000000	69.543	-20.6310
710.000000	69.444	-11.0376
720.000000	69.358	-1.4406
730.000000	69.278	8.1282
740.000000	69.198	17.6879
750.000000	69.116	27.2391
762.000000	69.032	38.6285
775.000000	68.967	50.8765
788.000000	68.922	63.0607
800.000000	68.893	74.2186
812.000000	68.871	85.3066
825.000000	68.852	97.2358
838.000000	68.840	109.0696
850.000000	68.835	119.9173
862.000000	68.837	130.6787
875.000000	68.848	142.2346
885.000000	68.862	151.0681
900.000000	68.893	164.2137
912.000000	68.921	174.6375
925.000000	68.954	-174.1487
938.000000	68.991	-163.0425
950.000000	69.030	-152.8943
962.000000	69.073	-142.8221
975.000000	69.127	-131.9873
988.000000	69.186	-121.2485
1000.000000	69.241	-111.4255
1015.000000	69.311	-99.2759
1030.000000	69.385	-87.2747
1044.000000	69.463	-76.2036
1060.000000	69.561	-63.7286
1075.000000	69.653	-52.1783
1090.000000	69.739	-40.7163
1106.000000	69.830	-28.5980
1120.000000	69.912	-18.1133
1138.000000	70.020	-4.7959
1150.000000	70.092	3.9875
1172.000000	70.226	19.9119
1180.000000	70.275	25.6487
1206.000000	70.444	44.0947
1220.000000	70.544	53.9172
1241.000000	70.707	68.5205
1250.000000	70.781	74.7170
1265.000000	70.909	84.9521
1280.000000	71.035	95.0935
1315.000000	71.302	118.4860
1320.000000	71.334	121.7959
1340.000000	71.432	134.9475
1360.000000	71.479	147.9578
1380.000000	71.484	160.8503
1400.000000	71.472	173.6536
1430.000000	71.479	-167.2914
1450.000000	71.519	-154.7109
1475.000000	71.604	-139.1498
1500.000000	71.710	-123.7792
1525.000000	71.826	-108.6066
1550.000000	71.953	-93.6060
1575.000000	72.084	-78.7374
1600.000000	72.215	-63.9847
1625.000000	72.347	-49.3604
1650.000000	72.479	-34.9390
1675.000000	72.607	-20.7451
1700.000000	72.731	-6.7296
1725.000000	72.854	7.1549
1750.000000	72.978	20.9294
1775.000000	73.102	34.5768
1800.000000	73.226	48.0653
1825.000000	73.352	61.3888
1850.000000	73.483	74.5674
1875.000000	73.618	87.5975
1900.000000	73.752	100.4573
1925.000000	73.884	113.1497
1950.000000	74.017	125.6631
1975.000000	74.148	137.9796
2000.000000	74.278	150.1147
2030.000000	74.436	164.4581
2060.000000	74.592	178.5435
2090.000000	74.741	-167.6587
2120.000000	74.880	-154.0885
2140.000000	74.964	-145.1326
2180.000000	75.113	-127.4332
2200.000000	75.180	-118.6791
2240.000000	75.312	-101.3612
2270.000000	75.417	-88.5583
2300.000000	75.525	-75.9293
2330.000000	75.633	-63.4880
2360.000000	75.735	-51.2360
2400.000000	75.855	-35.1714
2430.000000	75.933	-23.3011
2470.000000	76.026	-7.7042
2500.000000	76.090	3.8054
2540.000000	76.166	18.9028
2580.000000	76.228	33.7344
2620.000000	76.277	48.3212
2650.000000	76.307	59.1256
2690.000000	76.337	73.3733
2720.000000	76.353	83.9561
2760.000000	76.367	97.9263
2800.000000	76.378	111.6746
2850.000000	76.385	128.4915
2900.000000	76.376	144.9924
2950.000000	76.350	161.2769
3000.000000	76.315	177.3428
3040.000000	76.280	-169.9878
3070.000000	76.249	-160.6011
3110.000000	76.205	-148.2334
3150.000000	76.161	-136.0127
3200.000000	76.109	-120.9448
3250.000000	76.055	-106.1226
3300.000000	75.992	-91.5371
3350.000000	75.922	-77.1724
3400.000000	75.842	-63.0115
3450.000000	75.755	-49.0381
3500.000000	75.663	-35.2573
3550.000000	75.572	-21.6812
3600.000000	75.485	-8.3252
3650.000000	75.405	4.8169
3700.000000	75.334	17.7678
3750.000000	75.274	30.5225
3820.000000	75.207	48.0508
3870.000000	75.171	60.3611
3950.000000	75.130	79.6501
4000.000000	75.104	91.4517
4060.000000	75.070	105.3665
4120.000000	75.033	118.9985
4180.000000	74.994	132.3865
4250.000000	74.953	147.7290
4310.000000	74.931	160.5671
4370.000000	74.925	173.0725
4440.000000	74.948	-172.7549
4500.000000	75.002	-160.9717
4550.000000	75.072	-151.4165
4620.000000	75.197	-138.4519
4680.000000	75.324	-127.7358
4750.000000	75.486	-115.7131
4820.000000	75.654	-104.2195
4870.000000	75.774	-96.3264
4940.000000	75.944	-85.6885
5000.000000	76.091	-76.9368
5080.000000	76.288	-65.7883
5150.000000	76.458	-56.4954
5220.000000	76.629	-47.6050
5300.000000	76.832	-37.9463
5380.000000	77.039	-28.8369
5450.000000	77.222	-21.3184
5520.000000	77.413	-14.2395
5600.000000	77.642	-6.7188
5700.000000	77.948	1.7949
5800.000000	78.275	9.3208
5900.000000	78.618	15.8118
6000.000000	78.952	21.2214
6080.000000	79.189	24.7913
6150.000000	79.363	27.4062
6220.000000	79.501	29.6011
6300.000000	79.616	31.6687
6400.000000	79.701	33.6975
6500.000000	79.733	35.1841
6600.000000	79.722	36.1699
6700.000000	79.679	36.6890
6800.000000	79.610	36.7827
6900.000000	79.514	36.4861
7000.000000	79.393	35.8271
7100.000000	79.263	34.8481
7200.000000	79.139	33.5891
7300.000000	79.039	32.0527
7400.000000	78.975	30.2119
7500.000000	78.963	28.0237
7620.000000	79.031	24.8333
7750.000000	79.184	20.5112
7880.000000	79.364	15.0918
8000.000000	79.516	8.9336
8120.000000	79.642	1.5151
8250.000000	79.748	-8.0632
8380.000000	79.817	-19.2983
8500.000000	79.826	-31.0938
8620.000000	79.744	-44.1191
8750.000000	79.504	-59.3521
8850.000000	79.186	-71.6367
9000.000000	78.469	-90.5264
9120.000000	77.692	-105.6726
9250.000000	76.671	-121.7947
9380.000000	75.512	-137.4341
9500.000000	74.372	-151.3652
9620.000000	73.217	-164.8105
9750.000000	72.003	-178.8896
9880.000000	70.870	167.4019
10000.000000	69.928	154.8872
10150.000000	68.918	139.1367
10300.000000	68.107	122.9690
10440.000000	67.525	107.2654
10600.000000	67.045	88.3904
10750.000000	66.745	69.6562
10900.000000	66.563	49.8179
11060.000000	66.477	27.3787
11200.000000	66.481	6.6567
11380.000000	66.583	-21.4739
11500.000000	66.696	-41.1709
11720.000000	66.957	-79.2253
11800.000000	67.065	-93.6587
12060.000000	67.450	-142.7891
12200.000000	67.661	-170.7173
12410.000000	67.929	145.4712
12500.000000	68.007	126.0344
12650.000000	68.057	92.8435
12800.000000	67.979	58.7651
13150.000000	67.152	-23.1240
13200.000000	66.958	-34.9969
13400.000000	66.027	-82.8308
13600.000000	64.935	-131.1976
13800.000000	63.810	-179.8811
14000.000000	62.742	131.3894
14300.000000	61.348	57.7728
14500.000000	60.614	7.9099
14750.000000	59.970	-55.3645
15000.000000	59.648	-119.9271
15250.000000	59.610	173.4978
15500.000000	59.766	104.3020
15750.000000	60.003	32.7571
16000.000000	60.194	-41.3390
16250.000000	60.242	-117.8425
16500.000000	60.143	164.8555
16750.000000	60.013	85.4896
17000.000000	59.983	4.0037
17250.000000	60.076	-77.7892
17500.000000	60.215	-160.4520
17750.000000	60.309	114.8564
18000.000000	60.286	27.2258
18250.000000	60.076	-61.4889
18500.000000	59.618	-149.2730
18750.000000	58.906	121.6651
19000.000000	57.999	32.0210
19250.000000	56.984	-49.4317
19500.000000	55.961	-167.1376
19750.000000	55.070	84.5370
20000.000000	54.537	57.5641
