* Measurement data measured by REW V5.30.2
* Source: Microphone (4- USB Audio Device), MICROPHONE (Master Volume), R, volume: 0.250
* Format: 256k Log Swept Sine, 1 sweep at -12.0 dBFS with no timing reference
* Dated: 06-Jan-2024 11:52:40
* REW Settings:
*  C-weighting compensation: Off
*  Target level: 75.0 dB
* Note: 
* Measurement: Simgot EA500 LM Gold R
* Smoothing: 1/12 octave
* Frequency Step: 1/48 octave
* Start Frequency: 20.300 Hz
*
* Freq(Hz)	SPL(dB)	Phase(degrees)
20.299999	75.971	-117.7860
20.600000	76.022	-118.5291
20.900000	76.088	-119.4979
21.200001	76.161	-120.5868
21.400000	76.213	-121.3542
21.799999	76.321	-122.9421
22.000000	76.377	-123.7422
22.400000	76.491	-125.3089
22.700001	76.577	-126.4292
23.000000	76.659	-127.4932
23.299999	76.735	-128.5055
23.600000	76.804	-129.4789
24.000000	76.883	-130.7456
24.299999	76.934	-131.6925
24.700001	76.993	-132.9724
25.000000	77.036	-133.9521
25.400000	77.093	-135.2830
25.799999	77.155	-136.6281
26.200001	77.223	-137.9648
26.500000	77.276	-138.9483
26.900000	77.345	-140.2220
27.200001	77.395	-141.1463
27.600000	77.455	-142.3412
28.000000	77.507	-143.5032
28.500000	77.562	-144.9282
29.000000	77.611	-146.3394
29.500000	77.657	-147.7433
30.000000	77.704	-149.1343
30.400000	77.741	-150.2284
30.700001	77.768	-151.0325
31.100000	77.802	-152.0782
31.500000	77.833	-153.0945
32.000000	77.870	-154.3344
32.500000	77.905	-155.5586
33.000000	77.937	-156.7792
33.500000	77.966	-157.9908
34.000000	77.991	-159.1761
34.500000	78.013	-160.3209
35.000000	78.036	-161.4262
35.500000	78.059	-162.5078
36.000000	78.081	-163.5831
36.500000	78.100	-164.6579
37.000000	78.116	-165.7220
37.500000	78.129	-166.7592
38.200001	78.148	-168.1560
38.700001	78.164	-169.1301
39.500000	78.189	-170.6965
40.000000	78.200	-171.6906
40.599998	78.207	-172.8871
41.200001	78.209	-174.0684
41.799999	78.209	-175.2182
42.500000	78.209	-176.5100
43.099998	78.212	-177.5780
43.700001	78.215	-178.6205
44.400002	78.215	-179.8159
45.000000	78.212	179.1725
45.500000	78.208	178.3361
46.200001	78.202	177.1732
46.799999	78.197	176.1908
47.500000	78.192	175.0740
48.200001	78.188	173.9857
48.700001	78.184	173.2157
49.400002	78.173	172.1436
50.000000	78.158	171.2385
50.799999	78.134	170.0637
51.500000	78.113	169.0633
52.200001	78.093	168.0868
53.000000	78.069	167.0055
53.799999	78.046	165.9576
54.500000	78.025	165.0599
55.200001	78.002	164.1784
56.000000	77.975	163.1932
57.000000	77.936	161.9951
58.000000	77.892	160.8263
59.000000	77.848	159.6758
60.000000	77.804	158.5414
60.799999	77.769	157.6523
61.500000	77.738	156.8942
62.200001	77.707	156.1578
63.000000	77.672	155.3423
64.000000	77.628	154.3528
65.000000	77.584	153.3815
66.000000	77.542	152.4194
67.000000	77.500	151.4673
68.000000	77.458	150.5263
69.000000	77.414	149.5967
70.000000	77.368	148.6871
71.000000	77.322	147.8095
72.000000	77.275	146.9679
73.000000	77.226	146.1538
74.000000	77.175	145.3539
75.000000	77.123	144.5653
76.199997	77.062	143.6435
77.500000	76.996	142.6815
78.800003	76.930	141.7518
80.000000	76.870	140.9180
81.199997	76.809	140.1059
82.500000	76.743	139.2547
83.800003	76.676	138.4393
85.000000	76.615	137.7178
86.199997	76.554	137.0218
87.500000	76.490	136.2888
88.500000	76.439	135.7342
90.000000	76.363	134.9152
91.199997	76.304	134.2756
92.500000	76.242	133.6015
93.800003	76.184	132.9474
95.000000	76.132	132.3614
96.199997	76.080	131.7928
97.500000	76.022	131.1945
98.800003	75.962	130.6072
100.000000	75.907	130.0710
101.500000	75.838	129.4121
103.000000	75.772	128.7696
104.400002	75.713	128.1782
106.000000	75.648	127.5045
107.500000	75.586	126.8741
109.000000	75.524	126.2451
110.599998	75.456	125.5719
112.000000	75.397	124.9790
113.800003	75.321	124.2122
115.000000	75.270	123.7009
117.199997	75.177	122.7758
118.000000	75.144	122.4446
120.599998	75.033	121.3867
122.000000	74.972	120.8267
124.099998	74.880	119.9957
125.000000	74.841	119.6439
126.500000	74.777	119.0647
128.000000	74.716	118.4981
131.500000	74.574	117.2333
132.000000	74.554	117.0583
134.000000	74.474	116.3746
136.000000	74.395	115.7148
138.000000	74.318	115.0743
140.000000	74.240	114.4523
143.000000	74.120	113.5436
145.000000	74.038	112.9489
147.500000	73.935	112.2358
150.000000	73.831	111.5684
152.500000	73.728	110.9531
155.000000	73.626	110.3902
157.500000	73.528	109.8575
160.000000	73.439	109.3353
162.500000	73.362	108.8038
165.000000	73.293	108.2407
167.500000	73.223	107.6262
170.000000	73.140	106.9780
172.500000	73.040	106.3448
175.000000	72.928	105.7871
177.500000	72.805	105.3566
180.000000	72.682	105.0799
182.500000	72.568	104.9648
185.000000	72.473	105.0052
187.500000	72.409	105.1567
190.000000	72.381	105.3218
192.500000	72.390	105.3828
195.000000	72.428	105.2449
197.500000	72.478	104.8713
200.000000	72.527	104.2944
203.000000	72.570	103.4234
206.000000	72.589	102.4272
209.000000	72.580	101.3741
212.000000	72.550	100.3224
214.000000	72.521	99.6396
218.000000	72.446	98.3388
220.000000	72.402	97.7219
224.000000	72.306	96.5621
227.000000	72.234	95.7672
230.000000	72.164	95.0391
233.000000	72.097	94.3734
236.000000	72.033	93.7615
240.000000	71.947	93.0033
243.000000	71.879	92.4570
247.000000	71.784	91.7510
250.000000	71.711	91.2495
254.000000	71.615	90.6205
258.000000	71.522	90.0266
262.000000	71.434	89.4707
265.000000	71.372	89.0872
269.000000	71.294	88.6348
272.000000	71.239	88.3436
276.000000	71.169	88.0128
280.000000	71.102	87.7195
285.000000	71.018	87.3564
290.000000	70.934	86.9875
295.000000	70.851	86.6317
300.000000	70.770	86.2733
304.000000	70.708	85.9526
307.000000	70.663	85.6845
311.000000	70.605	85.2981
315.000000	70.546	84.8939
320.000000	70.471	84.3833
325.000000	70.395	83.8737
330.000000	70.322	83.3743
335.000000	70.257	82.8976
340.000000	70.200	82.4534
345.000000	70.147	82.0320
350.000000	70.093	81.6121
355.000000	70.037	81.1746
360.000000	69.979	80.7074
365.000000	69.923	80.2099
370.000000	69.872	79.6913
375.000000	69.826	79.1624
382.000000	69.768	78.4273
387.000000	69.728	77.9158
395.000000	69.666	77.1245
400.000000	69.628	76.6454
406.000000	69.583	76.0811
412.000000	69.537	75.5251
418.000000	69.490	74.9856
425.000000	69.438	74.3862
431.000000	69.396	73.8965
437.000000	69.357	73.4149
444.000000	69.314	72.8564
450.000000	69.276	72.3867
455.000000	69.243	72.0024
462.000000	69.198	71.4673
468.000000	69.163	71.0019
475.000000	69.129	70.4523
482.000000	69.098	69.9056
487.000000	69.076	69.5147
494.000000	69.044	68.9469
500.000000	69.016	68.4241
508.000000	68.979	67.6723
515.000000	68.947	66.9735
522.000000	68.915	66.2519
530.000000	68.878	65.4266
538.000000	68.844	64.6273
545.000000	68.818	63.9562
552.000000	68.796	63.3028
560.000000	68.772	62.5778
570.000000	68.743	61.7128
580.000000	68.715	60.8730
590.000000	68.689	60.0475
600.000000	68.663	59.2768
608.000000	68.642	58.7326
615.000000	68.626	58.3083
622.000000	68.614	57.9242
630.000000	68.605	57.5294
640.000000	68.598	57.0744
650.000000	68.591	56.5997
660.000000	68.580	56.0543
670.000000	68.565	55.4548
680.000000	68.552	54.8563
690.000000	68.547	54.2899
700.000000	68.550	53.7645
710.000000	68.557	53.2781
720.000000	68.565	52.8110
730.000000	68.572	52.3411
740.000000	68.579	51.8701
750.000000	68.588	51.4255
762.000000	68.602	50.9682
775.000000	68.625	50.5759
788.000000	68.660	50.2748
800.000000	68.698	50.0302
812.000000	68.736	49.7589
825.000000	68.777	49.4121
838.000000	68.821	49.0362
850.000000	68.868	48.6940
862.000000	68.921	48.3924
875.000000	68.985	48.1403
885.000000	69.038	48.0029
900.000000	69.125	47.8762
912.000000	69.199	47.8126
925.000000	69.283	47.7275
938.000000	69.368	47.5815
950.000000	69.446	47.3816
962.000000	69.524	47.1338
975.000000	69.614	46.8336
988.000000	69.710	46.4993
1000.000000	69.801	46.1469
1015.000000	69.913	45.6347
1030.000000	70.026	45.0489
1044.000000	70.135	44.4502
1060.000000	70.265	43.7136
1075.000000	70.387	42.9623
1090.000000	70.510	42.1308
1106.000000	70.641	41.1553
1120.000000	70.757	40.2582
1138.000000	70.906	39.0919
1150.000000	71.007	38.3177
1172.000000	71.189	36.9196
1180.000000	71.254	36.4155
1206.000000	71.455	34.8183
1220.000000	71.559	34.0211
1241.000000	71.716	32.9476
1250.000000	71.783	32.5308
1265.000000	71.893	31.8765
1280.000000	71.998	31.2455
1315.000000	72.225	29.7806
1320.000000	72.255	29.5785
1340.000000	72.375	28.8194
1360.000000	72.494	28.1785
1380.000000	72.614	27.6589
1400.000000	72.731	27.1890
1430.000000	72.900	26.4348
1450.000000	73.008	25.8776
1475.000000	73.145	25.1638
1500.000000	73.285	24.4858
1525.000000	73.431	23.8499
1550.000000	73.581	23.2444
1575.000000	73.734	22.6788
1600.000000	73.889	22.1941
1625.000000	74.045	21.8376
1650.000000	74.207	21.6204
1675.000000	74.375	21.4659
1700.000000	74.541	21.2386
1725.000000	74.699	20.8632
1750.000000	74.854	20.3794
1775.000000	75.010	19.9017
1800.000000	75.170	19.5242
1825.000000	75.336	19.2734
1850.000000	75.505	19.0968
1875.000000	75.672	18.9095
1900.000000	75.838	18.6385
1925.000000	76.001	18.2451
1950.000000	76.161	17.7442
1975.000000	76.320	17.1888
2000.000000	76.481	16.6523
2030.000000	76.678	16.1033
2060.000000	76.877	15.6473
2090.000000	77.074	15.2291
2120.000000	77.267	14.8015
2140.000000	77.394	14.4882
2180.000000	77.642	13.7300
2200.000000	77.760	13.2672
2240.000000	77.988	12.2318
2270.000000	78.153	11.4756
2300.000000	78.316	10.8516
2330.000000	78.478	10.4398
2360.000000	78.640	10.2498
2400.000000	78.850	10.1768
2430.000000	78.995	10.0908
2470.000000	79.171	9.8348
2500.000000	79.293	9.5726
2540.000000	79.443	9.2261
2580.000000	79.581	8.9555
2620.000000	79.704	8.7424
2650.000000	79.786	8.5546
2690.000000	79.881	8.1641
2720.000000	79.937	7.7299
2760.000000	79.997	7.0059
2800.000000	80.044	6.2410
2850.000000	80.086	5.3850
2900.000000	80.110	4.7278
2950.000000	80.117	4.3536
3000.000000	80.111	4.3116
3040.000000	80.099	4.4938
3070.000000	80.087	4.6949
3110.000000	80.063	4.9240
3150.000000	80.028	4.9979
3200.000000	79.972	4.9305
3250.000000	79.916	4.8884
3300.000000	79.858	4.9268
3350.000000	79.791	5.0358
3400.000000	79.722	5.3314
3450.000000	79.655	5.9535
3500.000000	79.592	6.9144
3550.000000	79.531	8.0333
3600.000000	79.464	9.0429
3650.000000	79.391	9.8119
3700.000000	79.315	10.3584
3750.000000	79.233	10.7555
3820.000000	79.110	11.3577
3870.000000	79.020	12.0853
3950.000000	78.879	13.9656
4000.000000	78.789	15.3707
4060.000000	78.674	17.0244
4120.000000	78.558	18.6329
4180.000000	78.444	20.2784
4250.000000	78.316	22.3586
4310.000000	78.211	24.3712
4370.000000	78.111	26.6731
4440.000000	78.005	29.8236
4500.000000	77.928	32.9951
4550.000000	77.874	35.9647
4620.000000	77.816	40.4386
4680.000000	77.777	44.3406
4750.000000	77.744	48.7617
4820.000000	77.724	52.9017
4870.000000	77.716	55.6209
4940.000000	77.710	59.0567
5000.000000	77.708	61.7024
5080.000000	77.709	64.9091
5150.000000	77.706	67.4447
5220.000000	77.689	69.8684
5300.000000	77.655	73.0255
5380.000000	77.611	77.1805
5450.000000	77.559	81.7111
5520.000000	77.489	86.9246
5600.000000	77.389	93.5314
5700.000000	77.240	102.2321
5800.000000	77.054	110.6371
5900.000000	76.833	118.4621
6000.000000	76.589	126.0583
6080.000000	76.387	132.2685
6150.000000	76.209	137.9530
6220.000000	76.034	143.9879
6300.000000	75.843	151.3977
6400.000000	75.617	161.4526
6500.000000	75.412	172.5766
6600.000000	75.241	-175.1360
6700.000000	75.102	-162.0851
6800.000000	74.997	-148.8954
6900.000000	74.926	-135.9280
7000.000000	74.893	-122.9117
7100.000000	74.908	-109.3804
7200.000000	74.964	-95.4064
7300.000000	75.048	-81.5091
7400.000000	75.148	-68.2230
7500.000000	75.249	-55.9227
7620.000000	75.355	-42.5216
7750.000000	75.429	-29.2452
7880.000000	75.436	-16.6834
8000.000000	75.372	-5.1474
8120.000000	75.235	6.8366
8250.000000	75.006	20.8398
8380.000000	74.700	36.1020
8500.000000	74.358	51.0961
8620.000000	73.974	66.7409
8750.000000	73.535	84.1933
8850.000000	73.196	97.9641
9000.000000	72.722	119.6481
9120.000000	72.393	138.1493
9250.000000	72.089	158.9167
9380.000000	71.829	179.6677
9500.000000	71.614	-161.4497
9620.000000	71.416	-142.5272
9750.000000	71.211	-121.6122
9880.000000	70.998	-100.2519
10000.000000	70.781	-80.3155
10150.000000	70.478	-55.0955
10300.000000	70.151	-29.1360
10440.000000	69.849	-3.8243
10600.000000	69.545	26.9083
10750.000000	69.339	57.7271
10900.000000	69.227	89.6483
11060.000000	69.215	122.9835
11200.000000	69.287	150.2463
11380.000000	69.486	-177.3189
11500.000000	69.685	-156.8056
11720.000000	70.179	-121.1729
11800.000000	70.396	-108.9539
12060.000000	71.205	-71.7343
12200.000000	71.688	-52.8786
12410.000000	72.417	-26.0456
12500.000000	72.710	-15.1089
12650.000000	73.138	2.2716
12800.000000	73.448	18.4044
13150.000000	73.473	51.9208
13200.000000	73.386	56.5435
13400.000000	72.811	75.5084
13600.000000	71.925	95.9902
13800.000000	70.822	118.8331
14000.000000	69.627	144.9468
14300.000000	67.906	-167.7620
14500.000000	66.906	-130.7505
14750.000000	65.881	-85.1597
15000.000000	65.095	-53.5977
15250.000000	64.516	-37.7417
15500.000000	64.170	-31.0543
15750.000000	64.069	-28.2356
16000.000000	64.182	-26.3301
16250.000000	64.414	-25.2472
16500.000000	64.640	-25.6346
16750.000000	64.756	-27.1133
17000.000000	64.704	-29.0438
17250.000000	64.482	-31.3811
17500.000000	64.114	-34.3529
17750.000000	63.632	-37.7478
18000.000000	63.056	-41.1498
18250.000000	62.406	-44.3236
18500.000000	61.706	-47.3341
18750.000000	60.972	-50.5333
19000.000000	60.197	-54.3569
19250.000000	59.359	-58.9131
19500.000000	58.465	-64.0380
19750.000000	57.635	-68.9133
20000.000000	57.131	-71.9208
