* Measurement data measured by REW V5.20.13
* Source: Microphone (2- USB Audio Device), MICROPHONE (Master Volume), L, volume: 0.250. Timing signal peak level -27.5 dBFS, measurement signal peak level -25.4 dBFS
* Format: 256k Log Swept Sine, 1 sweep at -12.0 dBFS using an acoustic timing reference
* Dated: 13-Sep-2023 13:05:21
* REW Settings:
*  C-weighting compensation: Off
*  Target level: 75.0 dB
* Note: 
* Measurement: Simgot EM6L R
* Smoothing: 1/12 octave
* Frequency Step: 1/48 octave
* Start Frequency: 20.000 Hz
*
* Freq(Hz)	SPL(dB)	Phase(degrees)
20.000000	75.779	-100.7583
20.299999	75.898	-101.8460
20.600000	76.013	-102.8992
20.900000	76.121	-103.9225
21.200001	76.222	-104.9175
21.400000	76.285	-105.5656
21.799999	76.400	-106.8288
22.000000	76.453	-107.4466
22.400000	76.551	-108.6614
22.700001	76.620	-109.5580
23.000000	76.685	-110.4437
23.299999	76.748	-111.3191
23.600000	76.810	-112.1870
24.000000	76.892	-113.3411
24.299999	76.953	-114.2128
24.700001	77.035	-115.3900
25.000000	77.095	-116.2809
25.400000	77.173	-117.4656
25.799999	77.250	-118.6255
26.200001	77.326	-119.7447
26.500000	77.383	-120.5546
26.900000	77.461	-121.5977
27.200001	77.520	-122.3560
27.600000	77.598	-123.3394
28.000000	77.674	-124.2947
28.500000	77.762	-125.4526
29.000000	77.840	-126.5708
29.500000	77.907	-127.6468
30.000000	77.964	-128.6817
30.400000	78.004	-129.4876
30.700001	78.030	-130.0848
31.100000	78.063	-130.8787
31.500000	78.091	-131.6745
32.000000	78.124	-132.6739
32.500000	78.153	-133.6777
33.000000	78.181	-134.6835
33.500000	78.208	-135.6870
34.000000	78.234	-136.6812
34.500000	78.259	-137.6590
35.000000	78.285	-138.6153
35.500000	78.311	-139.5468
36.000000	78.337	-140.4506
36.500000	78.362	-141.3245
37.000000	78.386	-142.1674
37.500000	78.406	-142.9801
38.200001	78.430	-144.0726
38.700001	78.442	-144.8270
39.500000	78.457	-146.0042
40.000000	78.463	-146.7254
40.599998	78.468	-147.5767
41.200001	78.473	-148.4125
41.799999	78.479	-149.2338
42.500000	78.485	-150.1714
43.099998	78.488	-150.9508
43.700001	78.490	-151.7047
44.400002	78.493	-152.5577
45.000000	78.495	-153.2719
45.500000	78.494	-153.8552
46.200001	78.492	-154.6520
46.799999	78.490	-155.3192
47.500000	78.488	-156.0851
48.200001	78.488	-156.8362
48.700001	78.489	-157.3600
49.400002	78.490	-158.0731
50.000000	78.486	-158.6662
50.799999	78.471	-159.4323
51.500000	78.452	-160.0813
52.200001	78.430	-160.7133
53.000000	78.406	-161.4187
53.799999	78.382	-162.1078
54.500000	78.362	-162.6978
55.200001	78.340	-163.2767
56.000000	78.315	-163.9265
57.000000	78.282	-164.7174
58.000000	78.247	-165.4780
59.000000	78.213	-166.2164
60.000000	78.178	-166.9393
60.799999	78.146	-167.4980
61.500000	78.118	-167.9678
62.200001	78.088	-168.4201
63.000000	78.054	-168.9174
64.000000	78.012	-169.5140
65.000000	77.971	-170.0908
66.000000	77.931	-170.6534
67.000000	77.890	-171.1998
68.000000	77.847	-171.7279
69.000000	77.802	-172.2402
70.000000	77.753	-172.7403
71.000000	77.702	-173.2266
72.000000	77.650	-173.6910
73.000000	77.599	-174.1282
74.000000	77.550	-174.5429
75.000000	77.500	-174.9433
76.199997	77.438	-175.4052
77.500000	77.369	-175.8712
78.800003	77.300	-176.2968
80.000000	77.239	-176.6626
81.199997	77.181	-177.0115
82.500000	77.120	-177.3745
83.800003	77.061	-177.7161
85.000000	77.007	-178.0061
86.199997	76.952	-178.2681
87.500000	76.892	-178.5189
88.500000	76.846	-178.6888
90.000000	76.779	-178.9123
91.199997	76.727	-179.0731
92.500000	76.671	-179.2373
93.800003	76.613	-179.3921
95.000000	76.559	-179.5244
96.199997	76.503	-179.6465
97.500000	76.443	-179.7664
98.800003	76.384	-179.8737
100.000000	76.333	-179.9636
101.500000	76.273	179.9326
103.000000	76.218	179.8364
104.400002	76.167	179.7545
106.000000	76.107	179.6710
107.500000	76.050	179.6039
109.000000	75.993	179.5493
110.599998	75.932	179.5029
112.000000	75.878	179.4701
113.800003	75.810	179.4386
115.000000	75.764	179.4246
117.199997	75.679	179.4128
118.000000	75.648	179.4122
120.599998	75.549	179.4205
122.000000	75.498	179.4314
124.099998	75.426	179.4560
125.000000	75.397	179.4691
126.500000	75.348	179.4935
128.000000	75.298	179.5220
131.500000	75.180	179.6200
132.000000	75.163	179.6389
134.000000	75.094	179.7267
136.000000	75.026	179.8292
138.000000	74.957	179.9350
140.000000	74.888	-179.9629
143.000000	74.786	-179.8102
145.000000	74.719	-179.7011
147.500000	74.637	-179.5536
150.000000	74.556	-179.3899
152.500000	74.478	-179.2087
155.000000	74.402	-179.0206
157.500000	74.324	-178.8310
160.000000	74.246	-178.6318
162.500000	74.172	-178.4201
165.000000	74.100	-178.1955
167.500000	74.030	-177.9517
170.000000	73.961	-177.6822
172.500000	73.893	-177.3889
175.000000	73.826	-177.0802
177.500000	73.758	-176.7592
180.000000	73.686	-176.4241
182.500000	73.605	-176.0747
185.000000	73.515	-175.7110
187.500000	73.416	-175.3316
190.000000	73.312	-174.9408
192.500000	73.213	-174.5464
195.000000	73.124	-174.1506
197.500000	73.047	-173.7506
200.000000	72.982	-173.3426
203.000000	72.922	-172.8386
206.000000	72.875	-172.3173
209.000000	72.836	-171.7759
212.000000	72.796	-171.2102
214.000000	72.765	-170.8193
218.000000	72.695	-170.0081
220.000000	72.656	-169.5877
224.000000	72.574	-168.7163
227.000000	72.510	-168.0399
230.000000	72.445	-167.3492
233.000000	72.381	-166.6499
236.000000	72.318	-165.9447
240.000000	72.235	-164.9899
243.000000	72.172	-164.2605
247.000000	72.088	-163.2742
250.000000	72.027	-162.5303
254.000000	71.950	-161.5391
258.000000	71.879	-160.5413
262.000000	71.810	-159.5288
265.000000	71.759	-158.7621
269.000000	71.692	-157.7335
272.000000	71.643	-156.9576
276.000000	71.577	-155.9185
280.000000	71.512	-154.8806
285.000000	71.433	-153.5882
290.000000	71.355	-152.2846
295.000000	71.279	-150.9555
300.000000	71.207	-149.6108
304.000000	71.150	-148.5329
307.000000	71.108	-147.7220
311.000000	71.053	-146.6355
315.000000	70.999	-145.5473
320.000000	70.933	-144.1918
325.000000	70.868	-142.8393
330.000000	70.803	-141.4874
335.000000	70.742	-140.1374
340.000000	70.687	-138.7876
345.000000	70.637	-137.4330
350.000000	70.586	-136.0702
355.000000	70.532	-134.7074
360.000000	70.478	-133.3595
365.000000	70.425	-132.0288
370.000000	70.374	-130.7103
375.000000	70.322	-129.4055
382.000000	70.252	-127.6128
387.000000	70.203	-126.3435
395.000000	70.130	-124.2922
400.000000	70.089	-122.9967
406.000000	70.040	-121.4419
412.000000	69.992	-119.8986
418.000000	69.942	-118.3638
425.000000	69.884	-116.5624
431.000000	69.833	-115.0038
437.000000	69.783	-113.4383
444.000000	69.726	-111.5980
450.000000	69.682	-109.9926
455.000000	69.651	-108.6321
462.000000	69.613	-106.7025
468.000000	69.581	-105.0463
475.000000	69.541	-103.1395
482.000000	69.496	-101.2583
487.000000	69.461	-99.9164
494.000000	69.411	-98.0283
500.000000	69.371	-96.3963
508.000000	69.325	-94.1829
515.000000	69.292	-92.1905
522.000000	69.261	-90.1380
530.000000	69.225	-87.7274
538.000000	69.190	-85.2720
545.000000	69.159	-83.1071
552.000000	69.129	-80.9384
560.000000	69.097	-78.4753
570.000000	69.056	-75.4546
580.000000	69.011	-72.4977
590.000000	68.961	-69.5681
600.000000	68.913	-66.6389
608.000000	68.878	-64.2825
615.000000	68.852	-62.2024
622.000000	68.827	-60.1006
630.000000	68.799	-57.6672
640.000000	68.762	-54.5692
650.000000	68.730	-51.4137
660.000000	68.705	-48.2165
670.000000	68.684	-44.9849
680.000000	68.663	-41.7257
690.000000	68.642	-38.4595
700.000000	68.623	-35.2156
710.000000	68.607	-32.0078
720.000000	68.592	-28.8263
730.000000	68.577	-25.6565
740.000000	68.566	-22.4872
750.000000	68.559	-19.3040
762.000000	68.556	-15.4358
775.000000	68.556	-11.1687
788.000000	68.559	-6.8335
800.000000	68.566	-2.7685
812.000000	68.579	1.3529
825.000000	68.600	5.8474
838.000000	68.627	10.3336
850.000000	68.657	14.4391
862.000000	68.690	18.4879
875.000000	68.727	22.8104
885.000000	68.759	26.1049
900.000000	68.814	31.0080
912.000000	68.864	34.8896
925.000000	68.922	39.0444
938.000000	68.980	43.1443
950.000000	69.035	46.8834
962.000000	69.093	50.5900
975.000000	69.161	54.5887
988.000000	69.237	58.5800
1000.000000	69.310	62.2529
1015.000000	69.399	66.8199
1030.000000	69.487	71.3607
1044.000000	69.573	75.5867
1060.000000	69.678	80.4156
1075.000000	69.780	84.9498
1090.000000	69.879	89.4810
1106.000000	69.981	94.2886
1120.000000	70.070	98.4750
1138.000000	70.184	103.8553
1150.000000	70.260	107.4564
1172.000000	70.398	114.1180
1180.000000	70.449	116.5654
1206.000000	70.628	124.5991
1220.000000	70.731	128.9416
1241.000000	70.892	135.4149
1250.000000	70.963	138.1634
1265.000000	71.084	142.7109
1280.000000	71.207	147.2380
1315.000000	71.476	157.8411
1320.000000	71.507	159.3623
1340.000000	71.602	165.4542
1360.000000	71.646	171.5628
1380.000000	71.653	177.7135
1400.000000	71.650	-176.0766
1430.000000	71.665	-166.6453
1450.000000	71.704	-160.2916
1475.000000	71.786	-152.3141
1500.000000	71.894	-144.3607
1525.000000	72.012	-136.4799
1550.000000	72.132	-128.6430
1575.000000	72.259	-120.7848
1600.000000	72.391	-112.8845
1625.000000	72.523	-104.9878
1650.000000	72.654	-97.1964
1675.000000	72.781	-89.5768
1700.000000	72.901	-82.1123
1725.000000	73.019	-74.7077
1750.000000	73.142	-67.2304
1775.000000	73.271	-59.6024
1800.000000	73.403	-51.8258
1825.000000	73.537	-43.9468
1850.000000	73.670	-36.0110
1875.000000	73.801	-28.0322
1900.000000	73.931	-20.0095
1925.000000	74.062	-11.9459
1950.000000	74.194	-3.8481
1975.000000	74.328	4.2626
2000.000000	74.464	12.3560
2030.000000	74.624	22.0110
2060.000000	74.783	31.5889
2090.000000	74.941	41.1119
2120.000000	75.100	50.6210
2140.000000	75.205	56.9752
2180.000000	75.416	69.8029
2200.000000	75.524	76.3092
2240.000000	75.745	89.5171
2270.000000	75.912	99.5385
2300.000000	76.077	109.5930
2330.000000	76.241	119.6275
2360.000000	76.404	129.5868
2400.000000	76.610	142.6763
2430.000000	76.759	152.3537
2470.000000	76.956	165.1194
2500.000000	77.101	174.5940
2540.000000	77.283	-172.9431
2580.000000	77.452	-160.6684
2620.000000	77.610	-148.4695
2650.000000	77.724	-139.2824
2690.000000	77.871	-126.9313
2720.000000	77.973	-117.6162
2760.000000	78.095	-105.1815
2800.000000	78.202	-92.7321
2850.000000	78.320	-77.0630
2900.000000	78.424	-61.2463
2950.000000	78.508	-45.4564
3000.000000	78.561	-29.8784
3040.000000	78.583	-17.5256
3070.000000	78.591	-8.2332
3110.000000	78.595	4.3115
3150.000000	78.591	17.1177
3200.000000	78.580	33.5269
3250.000000	78.561	50.2388
3300.000000	78.525	66.9728
3350.000000	78.466	83.5804
3400.000000	78.392	100.1544
3450.000000	78.307	116.8480
3500.000000	78.213	133.7288
3550.000000	78.113	150.7675
3600.000000	78.008	167.8832
3650.000000	77.901	-174.9811
3700.000000	77.800	-157.8257
3750.000000	77.709	-140.6414
3820.000000	77.596	-116.5743
3870.000000	77.521	-99.3772
3950.000000	77.411	-71.7290
4000.000000	77.345	-54.3384
4060.000000	77.262	-33.4243
4120.000000	77.169	-12.5566
4180.000000	77.064	8.1968
4250.000000	76.930	32.2290
4310.000000	76.807	52.6606
4370.000000	76.681	72.9475
4440.000000	76.532	96.5189
4500.000000	76.407	116.7793
4550.000000	76.304	133.8195
4620.000000	76.161	158.0417
4680.000000	76.033	179.1675
4750.000000	75.874	-155.8008
4820.000000	75.709	-130.4551
4870.000000	75.587	-112.2606
4940.000000	75.414	-86.7966
5000.000000	75.268	-65.0309
5080.000000	75.080	-36.0245
5150.000000	74.927	-10.4359
5220.000000	74.789	15.5704
5300.000000	74.649	45.8346
5380.000000	74.521	76.4884
5450.000000	74.417	103.5287
5520.000000	74.326	130.8278
5600.000000	74.247	162.5256
5700.000000	74.189	-156.8077
5800.000000	74.183	-114.9177
5900.000000	74.228	-72.2328
6000.000000	74.310	-29.4240
6080.000000	74.389	4.6519
6150.000000	74.466	34.3608
6220.000000	74.549	64.0315
6300.000000	74.651	97.9041
6400.000000	74.785	140.1001
6500.000000	74.927	-177.9536
6600.000000	75.075	-136.3792
6700.000000	75.220	-95.3145
6800.000000	75.354	-54.7656
6900.000000	75.462	-14.5608
7000.000000	75.544	25.6313
7100.000000	75.632	65.9861
7200.000000	75.749	106.2974
7300.000000	75.882	146.3591
7400.000000	76.009	-173.8169
7500.000000	76.120	-134.1641
7620.000000	76.241	-86.8188
7750.000000	76.352	-36.0176
7880.000000	76.399	14.1543
8000.000000	76.358	60.0310
8120.000000	76.234	105.6318
8250.000000	76.027	154.9854
8380.000000	75.783	-155.2705
8500.000000	75.550	-108.7913
8620.000000	75.308	-61.9998
8750.000000	75.019	-11.4360
8850.000000	74.764	27.2732
9000.000000	74.325	85.4556
9120.000000	73.930	132.4988
9250.000000	73.470	-176.1313
9380.000000	72.992	-125.3105
9500.000000	72.542	-80.2737
9620.000000	72.084	-37.9368
9750.000000	71.602	5.0933
9880.000000	71.158	46.0701
10000.000000	70.789	82.7046
10150.000000	70.387	127.5261
10300.000000	70.053	171.9265
10440.000000	69.803	-146.6663
10600.000000	69.587	-99.4160
10750.000000	69.452	-55.4683
10900.000000	69.377	-12.2058
11060.000000	69.363	33.0767
11200.000000	69.400	72.1123
11380.000000	69.506	121.8943
11500.000000	69.613	154.9941
11720.000000	69.878	-144.5142
11800.000000	69.989	-122.6279
12060.000000	70.327	-52.4082
12200.000000	70.463	-15.3711
12410.000000	70.570	39.4204
12500.000000	70.575	62.8047
12650.000000	70.521	101.9028
12800.000000	70.383	141.2798
13150.000000	69.684	-126.6157
13200.000000	69.541	-113.5278
13400.000000	68.891	-61.2646
13600.000000	68.186	-8.8579
13800.000000	67.514	43.8896
14000.000000	66.929	96.8857
14300.000000	66.240	175.5479
14500.000000	65.880	-133.2988
14750.000000	65.499	-70.2490
15000.000000	65.145	-7.7329
15250.000000	64.771	53.6182
15500.000000	64.333	113.3750
15750.000000	63.837	171.8428
16000.000000	63.351	-130.1250
16250.000000	62.953	-71.3447
16500.000000	62.628	-11.7666
16750.000000	62.277	47.3125
17000.000000	61.818	105.1597
17250.000000	61.304	162.3057
17500.000000	60.939	-141.2061
17750.000000	60.799	-86.8145
18000.000000	60.608	-35.1680
18250.000000	60.111	15.3633
18500.000000	59.325	66.9961
18750.000000	58.412	120.9829
19000.000000	57.533	177.1792
19250.000000	56.795	-126.1631
19500.000000	56.245	-72.9067
19750.000000	55.886	-29.4893
