* Measurement data measured by REW V5.31.1
* Source: Microphone (4- USB Audio Device), MICROPHONE (Master Volume), R, volume: 0.250
* Format: 256k Log Swept Sine, 1 sweep at -12.0 dBFS with no timing reference
* Dated: 19-Jun-2024 10:49:48
* REW Settings:
*  C-weighting compensation: Off
*  Target level: 75.0 dB
* Note: 
* Measurement: SIMGOT Supermix4 L
* Smoothing: 1/12 octave
* Frequency Step: 1/48 octave
* Start Frequency: 20.300 Hz
*
* Freq(Hz)	SPL(dB)	Phase(degrees)
20.299999	76.874	-135.5104
20.600000	76.915	-136.1909
20.900000	76.966	-137.0430
21.200001	77.020	-137.9544
21.400000	77.055	-138.5730
21.799999	77.125	-139.8154
22.000000	77.159	-140.4344
22.400000	77.225	-141.6598
22.700001	77.271	-142.5633
23.000000	77.315	-143.4522
23.299999	77.357	-144.3272
23.600000	77.397	-145.1903
24.000000	77.446	-146.3254
24.299999	77.481	-147.1657
24.700001	77.525	-148.2704
25.000000	77.556	-149.0863
25.400000	77.595	-150.1573
25.799999	77.631	-151.2117
26.200001	77.663	-152.2535
26.500000	77.685	-153.0289
26.900000	77.712	-154.0559
27.200001	77.730	-154.8208
27.600000	77.753	-155.8316
28.000000	77.775	-156.8290
28.500000	77.802	-158.0511
29.000000	77.828	-159.2396
29.500000	77.850	-160.3917
30.000000	77.867	-161.5101
30.400000	77.878	-162.3858
30.700001	77.885	-163.0345
31.100000	77.892	-163.8915
31.500000	77.898	-164.7403
32.000000	77.905	-165.7880
32.500000	77.910	-166.8161
33.000000	77.914	-167.8214
33.500000	77.917	-168.8052
34.000000	77.917	-169.7714
34.500000	77.915	-170.7226
35.000000	77.912	-171.6578
35.500000	77.907	-172.5745
36.000000	77.901	-173.4716
36.500000	77.895	-174.3503
37.000000	77.887	-175.2107
37.500000	77.876	-176.0520
38.200001	77.858	-177.1995
38.700001	77.845	-178.0062
39.500000	77.825	-179.2917
40.000000	77.811	179.9109
40.599998	77.792	178.9735
41.200001	77.771	178.0635
41.799999	77.751	177.1748
42.500000	77.727	176.1548
43.099998	77.707	175.2955
43.700001	77.687	174.4536
44.400002	77.664	173.4911
45.000000	77.643	172.6794
45.500000	77.624	172.0118
46.200001	77.597	171.0922
46.799999	77.573	170.3193
47.500000	77.543	169.4390
48.200001	77.509	168.5839
48.700001	77.483	167.9826
49.400002	77.445	167.1373
50.000000	77.411	166.4011
50.799999	77.362	165.4155
51.500000	77.318	164.5708
52.200001	77.275	163.7509
53.000000	77.224	162.8397
53.799999	77.172	161.9515
54.500000	77.125	161.1900
55.200001	77.079	160.4405
56.000000	77.026	159.5986
57.000000	76.960	158.5727
58.000000	76.893	157.5789
59.000000	76.826	156.6145
60.000000	76.760	155.6741
60.799999	76.707	154.9374
61.500000	76.661	154.3062
62.200001	76.614	153.6902
63.000000	76.560	153.0052
64.000000	76.492	152.1728
65.000000	76.422	151.3593
66.000000	76.352	150.5596
67.000000	76.282	149.7722
68.000000	76.211	148.9989
69.000000	76.140	148.2448
70.000000	76.068	147.5142
71.000000	75.995	146.8062
72.000000	75.923	146.1170
73.000000	75.852	145.4479
74.000000	75.781	144.8042
75.000000	75.711	144.1841
76.199997	75.627	143.4607
77.500000	75.536	142.6964
78.800003	75.446	141.9535
80.000000	75.362	141.2879
81.199997	75.279	140.6426
82.500000	75.190	139.9691
83.800003	75.103	139.3221
85.000000	75.024	138.7459
86.199997	74.946	138.1872
87.500000	74.862	137.5979
88.500000	74.798	137.1546
90.000000	74.702	136.5082
91.199997	74.626	136.0102
92.500000	74.546	135.4888
93.800003	74.467	134.9824
95.000000	74.396	134.5296
96.199997	74.327	134.0916
97.500000	74.254	133.6306
98.800003	74.182	133.1789
100.000000	74.116	132.7665
101.500000	74.034	132.2548
103.000000	73.952	131.7495
104.400002	73.877	131.2890
106.000000	73.792	130.7773
107.500000	73.713	130.3057
109.000000	73.634	129.8369
110.599998	73.551	129.3393
112.000000	73.479	128.9066
113.800003	73.387	128.3565
115.000000	73.327	127.9961
117.199997	73.219	127.3532
118.000000	73.180	127.1263
120.599998	73.057	126.4135
122.000000	72.993	126.0435
124.099998	72.897	125.5074
125.000000	72.857	125.2838
126.500000	72.789	124.9185
128.000000	72.722	124.5633
131.500000	72.566	123.7786
132.000000	72.544	123.6724
134.000000	72.458	123.2621
136.000000	72.373	122.8713
138.000000	72.289	122.4941
140.000000	72.207	122.1291
143.000000	72.087	121.6071
145.000000	72.009	121.2786
147.500000	71.914	120.8936
150.000000	71.818	120.5286
152.500000	71.723	120.1685
155.000000	71.627	119.8093
157.500000	71.533	119.4565
160.000000	71.442	119.1077
162.500000	71.351	118.7546
165.000000	71.260	118.3976
167.500000	71.167	118.0473
170.000000	71.072	117.7145
172.500000	70.977	117.4059
175.000000	70.882	117.1224
177.500000	70.790	116.8622
180.000000	70.700	116.6259
182.500000	70.613	116.4152
185.000000	70.528	116.2253
187.500000	70.446	116.0506
190.000000	70.368	115.8898
192.500000	70.294	115.7445
195.000000	70.222	115.6132
197.500000	70.152	115.4879
200.000000	70.085	115.3637
203.000000	70.007	115.2181
206.000000	69.932	115.0859
209.000000	69.857	114.9766
212.000000	69.781	114.8864
214.000000	69.731	114.8339
218.000000	69.633	114.7527
220.000000	69.585	114.7302
224.000000	69.492	114.7285
227.000000	69.424	114.7710
230.000000	69.357	114.8599
233.000000	69.290	115.0038
236.000000	69.224	115.2097
240.000000	69.135	115.5945
243.000000	69.067	115.9792
247.000000	68.984	116.6332
250.000000	68.935	117.2271
254.000000	68.896	118.1335
258.000000	68.899	119.1040
262.000000	68.950	120.0097
265.000000	69.016	120.5475
269.000000	69.129	120.9615
272.000000	69.216	121.0114
276.000000	69.317	120.7668
280.000000	69.385	120.2828
285.000000	69.419	119.5520
290.000000	69.405	118.8694
295.000000	69.363	118.3300
300.000000	69.307	117.9517
304.000000	69.260	117.7482
307.000000	69.224	117.6396
311.000000	69.177	117.5426
315.000000	69.131	117.4919
320.000000	69.080	117.4823
325.000000	69.034	117.5227
330.000000	68.991	117.6123
335.000000	68.949	117.7590
340.000000	68.911	117.9504
345.000000	68.878	118.1544
350.000000	68.849	118.3475
355.000000	68.819	118.5312
360.000000	68.787	118.7221
365.000000	68.755	118.9230
370.000000	68.724	119.1214
375.000000	68.696	119.3089
382.000000	68.665	119.5727
387.000000	68.645	119.7878
395.000000	68.610	120.1848
400.000000	68.587	120.4611
406.000000	68.561	120.8433
412.000000	68.542	121.2972
418.000000	68.531	121.8116
425.000000	68.525	122.4498
431.000000	68.521	123.0099
437.000000	68.517	123.5727
444.000000	68.513	124.2124
450.000000	68.513	124.7339
455.000000	68.516	125.1523
462.000000	68.525	125.7380
468.000000	68.535	126.2628
475.000000	68.548	126.9083
482.000000	68.564	127.5656
487.000000	68.576	128.0228
494.000000	68.593	128.6311
500.000000	68.605	129.1225
508.000000	68.617	129.7421
515.000000	68.623	130.2558
522.000000	68.627	130.7444
530.000000	68.629	131.2825
538.000000	68.630	131.8197
545.000000	68.630	132.3027
552.000000	68.630	132.8081
560.000000	68.632	133.4240
570.000000	68.640	134.2566
580.000000	68.651	135.1378
590.000000	68.661	136.0233
600.000000	68.666	136.8937
608.000000	68.668	137.5862
615.000000	68.670	138.2012
622.000000	68.675	138.8445
630.000000	68.684	139.6365
640.000000	68.698	140.7281
650.000000	68.712	141.9133
660.000000	68.725	143.1491
670.000000	68.733	144.4127
680.000000	68.737	145.7081
690.000000	68.742	147.0544
700.000000	68.753	148.4684
710.000000	68.771	149.9547
720.000000	68.792	151.5004
730.000000	68.814	153.0682
740.000000	68.838	154.6262
750.000000	68.863	156.1613
762.000000	68.897	157.9562
775.000000	68.936	159.8043
788.000000	68.977	161.5084
800.000000	69.015	162.9422
812.000000	69.051	164.2581
825.000000	69.095	165.6164
838.000000	69.146	166.9775
850.000000	69.201	168.2771
862.000000	69.262	169.6382
875.000000	69.335	171.1828
885.000000	69.395	172.4031
900.000000	69.490	174.2631
912.000000	69.569	175.7679
925.000000	69.658	177.3977
938.000000	69.751	179.0181
950.000000	69.840	-179.4980
962.000000	69.933	-178.0420
975.000000	70.037	-176.5251
988.000000	70.142	-175.0944
1000.000000	70.237	-173.8536
1015.000000	70.357	-172.3929
1030.000000	70.479	-171.0020
1044.000000	70.597	-169.7338
1060.000000	70.736	-168.3008
1075.000000	70.871	-166.9951
1090.000000	71.008	-165.7604
1106.000000	71.151	-164.5549
1120.000000	71.273	-163.6014
1138.000000	71.424	-162.4913
1150.000000	71.521	-161.8082
1172.000000	71.692	-160.6004
1180.000000	71.751	-160.1507
1206.000000	71.943	-158.5922
1220.000000	72.047	-157.6963
1241.000000	72.197	-156.3749
1250.000000	72.256	-155.8531
1265.000000	72.349	-155.0621
1280.000000	72.436	-154.3620
1315.000000	72.631	-152.8919
1320.000000	72.659	-152.6800
1340.000000	72.772	-151.8201
1360.000000	72.882	-150.9747
1380.000000	72.982	-150.1922
1400.000000	73.074	-149.5141
1430.000000	73.203	-148.6826
1450.000000	73.285	-148.2124
1475.000000	73.387	-147.6728
1500.000000	73.490	-147.1510
1525.000000	73.598	-146.6353
1550.000000	73.714	-146.1309
1575.000000	73.832	-145.6818
1600.000000	73.948	-145.3092
1625.000000	74.063	-144.9858
1650.000000	74.179	-144.6482
1675.000000	74.296	-144.2506
1700.000000	74.414	-143.7787
1725.000000	74.532	-143.2227
1750.000000	74.651	-142.5858
1775.000000	74.770	-141.8853
1800.000000	74.889	-141.1276
1825.000000	75.011	-140.3070
1850.000000	75.138	-139.4595
1875.000000	75.265	-138.6572
1900.000000	75.386	-137.9294
1925.000000	75.508	-137.2377
1950.000000	75.635	-136.5343
1975.000000	75.763	-135.8106
2000.000000	75.891	-135.0808
2030.000000	76.048	-134.2087
2060.000000	76.209	-133.4042
2090.000000	76.367	-132.7449
2120.000000	76.519	-132.2167
2140.000000	76.621	-131.8768
2180.000000	76.828	-131.0427
2200.000000	76.935	-130.5179
2240.000000	77.151	-129.3589
2270.000000	77.309	-128.6036
2300.000000	77.456	-128.1134
2330.000000	77.592	-127.9015
2360.000000	77.725	-127.8678
2400.000000	77.900	-127.9483
2430.000000	78.027	-128.0964
2470.000000	78.180	-128.4504
2500.000000	78.284	-128.8004
2540.000000	78.413	-129.3103
2580.000000	78.527	-129.9049
2620.000000	78.618	-130.6675
2650.000000	78.671	-131.3318
2690.000000	78.729	-132.2564
2720.000000	78.761	-132.9466
2760.000000	78.789	-133.8582
2800.000000	78.799	-134.7757
2850.000000	78.786	-135.9675
2900.000000	78.744	-137.1833
2950.000000	78.678	-138.3300
3000.000000	78.592	-139.3361
3040.000000	78.511	-140.0483
3070.000000	78.440	-140.5477
3110.000000	78.334	-141.1422
3150.000000	78.223	-141.5886
3200.000000	78.081	-141.9087
3250.000000	77.932	-142.0254
3300.000000	77.778	-141.9333
3350.000000	77.625	-141.5205
3400.000000	77.481	-140.7120
3450.000000	77.347	-139.6216
3500.000000	77.217	-138.4763
3550.000000	77.091	-137.4164
3600.000000	76.972	-136.4576
3650.000000	76.859	-135.5407
3700.000000	76.755	-134.5363
3750.000000	76.664	-133.3514
3820.000000	76.554	-131.5471
3870.000000	76.482	-130.3585
3950.000000	76.380	-128.8732
4000.000000	76.327	-128.3107
4060.000000	76.273	-128.0741
4120.000000	76.232	-128.2845
4180.000000	76.201	-128.8725
4250.000000	76.174	-129.8103
4310.000000	76.161	-130.5326
4370.000000	76.158	-131.0051
4440.000000	76.161	-131.3717
4500.000000	76.161	-131.8077
4550.000000	76.154	-132.3683
4620.000000	76.134	-133.3341
4680.000000	76.112	-134.0707
4750.000000	76.078	-134.6156
4820.000000	76.026	-134.7772
4870.000000	75.978	-134.6247
4940.000000	75.896	-134.0503
5000.000000	75.807	-133.3662
5080.000000	75.659	-132.4625
5150.000000	75.500	-131.8458
5220.000000	75.316	-131.4902
5300.000000	75.074	-131.3782
5380.000000	74.811	-131.4004
5450.000000	74.567	-131.5134
5520.000000	74.309	-131.8290
5600.000000	74.001	-132.3614
5700.000000	73.620	-132.7426
5800.000000	73.261	-132.5120
5900.000000	72.924	-131.9335
6000.000000	72.619	-131.2882
6080.000000	72.401	-130.7888
6150.000000	72.236	-130.2629
6220.000000	72.098	-129.5295
6300.000000	71.977	-128.4229
6400.000000	71.875	-127.0416
6500.000000	71.817	-126.4040
6600.000000	71.793	-126.9404
6700.000000	71.803	-128.5060
6800.000000	71.845	-130.7791
6900.000000	71.916	-133.5950
7000.000000	72.015	-136.9367
7100.000000	72.150	-140.8597
7200.000000	72.327	-145.5075
7300.000000	72.531	-150.9476
7400.000000	72.746	-156.9500
7500.000000	72.962	-163.0841
7620.000000	73.215	-170.3271
7750.000000	73.455	-178.2727
7880.000000	73.628	173.0879
8000.000000	73.707	164.0584
8120.000000	73.695	154.0257
8250.000000	73.561	142.5698
8380.000000	73.293	131.2188
8500.000000	72.931	121.2114
8620.000000	72.475	111.7491
8750.000000	71.894	101.8819
8850.000000	71.398	94.3091
9000.000000	70.598	82.9318
9120.000000	69.932	74.1804
9250.000000	69.206	65.3000
9380.000000	68.494	56.7413
9500.000000	67.866	48.7068
9620.000000	67.283	40.4157
9750.000000	66.710	31.2484
9880.000000	66.201	22.2417
10000.000000	65.801	14.5271
10150.000000	65.411	5.6934
10300.000000	65.151	-3.1038
10440.000000	65.038	-11.7147
10600.000000	65.090	-21.6429
10750.000000	65.324	-30.9244
10900.000000	65.734	-40.6039
11060.000000	66.356	-51.5331
11200.000000	67.044	-61.5957
11380.000000	68.078	-75.9340
11500.000000	68.819	-86.8630
11720.000000	70.171	-109.7466
11800.000000	70.619	-118.8091
12060.000000	71.709	-150.3168
12200.000000	71.970	-168.3539
12410.000000	71.881	164.2018
12500.000000	71.683	152.8029
12650.000000	71.192	134.9645
12800.000000	70.567	119.2161
13150.000000	69.049	96.2894
13200.000000	68.867	95.2524
13400.000000	68.306	97.0497
13600.000000	68.008	105.2405
13800.000000	67.923	114.8704
14000.000000	67.997	122.9626
14300.000000	68.314	131.3646
14500.000000	68.655	135.8521
14750.000000	69.224	140.7295
15000.000000	69.880	143.2263
15250.000000	70.492	142.4291
15500.000000	70.904	139.1323
15750.000000	70.964	134.7419
16000.000000	70.535	130.4111
16250.000000	69.554	127.9953
16500.000000	68.050	129.9203
16750.000000	66.241	139.0016
17000.000000	64.637	157.4764
17250.000000	63.856	-178.1472
17500.000000	64.045	-156.6938
17750.000000	64.767	-141.7545
18000.000000	65.509	-132.4323
18250.000000	65.936	-127.2469
18500.000000	65.884	-124.4897
18750.000000	65.328	-122.3082
19000.000000	64.357	-119.4385
19250.000000	63.150	-115.6594
19500.000000	61.976	-111.7676
19750.000000	61.132	-109.1342
20000.000000	60.751	-108.3198
