* Measurement data measured by REW V5.30.2
* Source: Microphone (4- USB Audio Device), MICROPHONE (Master Volume), R, volume: 0.250
* Format: 256k Log Swept Sine, 1 sweep at -12.0 dBFS with no timing reference
* Dated: 06-Jan-2024 11:51:22
* REW Settings:
*  C-weighting compensation: Off
*  Target level: 75.0 dB
* Note: 
* Measurement: Simgot EA500 LM Gold L
* Smoothing: 1/12 octave
* Frequency Step: 1/48 octave
* Start Frequency: 20.300 Hz
*
* Freq(Hz)	SPL(dB)	Phase(degrees)
20.299999	75.545	-100.4336
20.600000	75.614	-101.0474
20.900000	75.697	-101.8336
21.200001	75.780	-102.7040
21.400000	75.834	-103.3137
21.799999	75.940	-104.5787
22.000000	75.995	-105.2231
22.400000	76.107	-106.5066
22.700001	76.196	-107.4428
23.000000	76.287	-108.3418
23.299999	76.378	-109.1971
23.600000	76.465	-110.0089
24.000000	76.570	-111.0338
24.299999	76.637	-111.7725
24.700001	76.714	-112.7420
25.000000	76.762	-113.4751
25.400000	76.821	-114.4821
25.799999	76.878	-115.5343
26.200001	76.937	-116.6249
26.500000	76.985	-117.4529
26.900000	77.052	-118.5428
27.200001	77.104	-119.3328
27.600000	77.173	-120.3353
28.000000	77.240	-121.2805
28.500000	77.317	-122.4038
29.000000	77.383	-123.4962
29.500000	77.439	-124.5800
30.000000	77.489	-125.6574
30.400000	77.528	-126.5096
30.700001	77.558	-127.1403
31.100000	77.597	-127.9673
31.500000	77.637	-128.7765
32.000000	77.683	-129.7607
32.500000	77.725	-130.7137
33.000000	77.762	-131.6382
33.500000	77.795	-132.5392
34.000000	77.826	-133.4226
34.500000	77.855	-134.2914
35.000000	77.883	-135.1448
35.500000	77.908	-135.9784
36.000000	77.932	-136.7882
36.500000	77.956	-137.5748
37.000000	77.978	-138.3432
37.500000	78.000	-139.0977
38.200001	78.027	-140.1276
38.700001	78.043	-140.8402
39.500000	78.066	-141.9462
40.000000	78.079	-142.6244
40.599998	78.092	-143.4267
41.200001	78.105	-144.2106
41.799999	78.118	-144.9736
42.500000	78.132	-145.8432
43.099998	78.141	-146.5734
43.700001	78.148	-147.2867
44.400002	78.153	-148.0948
45.000000	78.156	-148.7703
45.500000	78.158	-149.3254
46.200001	78.160	-150.0957
46.799999	78.159	-150.7531
47.500000	78.157	-151.5216
48.200001	78.153	-152.2899
48.700001	78.148	-152.8274
49.400002	78.139	-153.5417
50.000000	78.128	-154.1110
50.799999	78.112	-154.8318
51.500000	78.096	-155.4563
52.200001	78.078	-156.0840
53.000000	78.057	-156.7933
53.799999	78.036	-157.4792
54.500000	78.017	-158.0565
55.200001	77.997	-158.6194
56.000000	77.971	-159.2554
57.000000	77.937	-160.0364
58.000000	77.903	-160.7873
59.000000	77.868	-161.5067
60.000000	77.831	-162.1981
60.799999	77.801	-162.7338
61.500000	77.773	-163.1903
62.200001	77.745	-163.6346
63.000000	77.712	-164.1262
64.000000	77.670	-164.7152
65.000000	77.628	-165.2760
66.000000	77.584	-165.8101
67.000000	77.540	-166.3208
68.000000	77.495	-166.8188
69.000000	77.451	-167.3088
70.000000	77.406	-167.7817
71.000000	77.360	-168.2286
72.000000	77.312	-168.6474
73.000000	77.263	-169.0444
74.000000	77.214	-169.4289
75.000000	77.164	-169.8035
76.199997	77.105	-170.2334
77.500000	77.038	-170.6740
78.800003	76.971	-171.0972
80.000000	76.909	-171.4734
81.199997	76.848	-171.8325
82.500000	76.785	-172.1962
83.800003	76.720	-172.5366
85.000000	76.661	-172.8436
86.199997	76.602	-173.1451
87.500000	76.540	-173.4500
88.500000	76.493	-173.6647
90.000000	76.423	-173.9738
91.199997	76.368	-174.2216
92.500000	76.308	-174.4847
93.800003	76.249	-174.7361
95.000000	76.194	-174.9583
96.199997	76.140	-175.1688
97.500000	76.081	-175.3804
98.800003	76.021	-175.5757
100.000000	75.967	-175.7432
101.500000	75.899	-175.9408
103.000000	75.834	-176.1340
104.400002	75.775	-176.3061
106.000000	75.707	-176.4863
107.500000	75.645	-176.6472
109.000000	75.584	-176.8056
110.599998	75.520	-176.9681
112.000000	75.464	-177.1029
113.800003	75.392	-177.2587
115.000000	75.343	-177.3481
117.199997	75.252	-177.4896
118.000000	75.219	-177.5363
120.599998	75.111	-177.6718
122.000000	75.054	-177.7390
124.099998	74.969	-177.8411
125.000000	74.934	-177.8835
126.500000	74.876	-177.9489
128.000000	74.817	-178.0089
131.500000	74.678	-178.1262
132.000000	74.658	-178.1382
134.000000	74.577	-178.1710
136.000000	74.493	-178.1839
138.000000	74.409	-178.1841
140.000000	74.327	-178.1797
143.000000	74.206	-178.1678
145.000000	74.126	-178.1358
147.500000	74.025	-178.0452
150.000000	73.921	-177.8976
152.500000	73.815	-177.7036
155.000000	73.709	-177.4511
157.500000	73.603	-177.1207
160.000000	73.504	-176.7277
162.500000	73.416	-176.3051
165.000000	73.345	-175.8844
167.500000	73.285	-175.4994
170.000000	73.228	-175.1995
172.500000	73.164	-175.0048
175.000000	73.087	-174.8829
177.500000	72.994	-174.7726
180.000000	72.886	-174.6003
182.500000	72.769	-174.3048
185.000000	72.652	-173.8589
187.500000	72.546	-173.2515
190.000000	72.463	-172.4961
192.500000	72.414	-171.6441
195.000000	72.401	-170.7895
197.500000	72.416	-170.0584
200.000000	72.443	-169.5480
203.000000	72.469	-169.2483
206.000000	72.474	-169.1806
209.000000	72.453	-169.2229
212.000000	72.410	-169.2937
214.000000	72.372	-169.3254
218.000000	72.284	-169.2990
220.000000	72.236	-169.2324
224.000000	72.138	-169.0114
227.000000	72.066	-168.7891
230.000000	71.995	-168.5296
233.000000	71.925	-168.2401
236.000000	71.854	-167.9308
240.000000	71.760	-167.5003
243.000000	71.688	-167.1746
247.000000	71.593	-166.7551
250.000000	71.525	-166.4557
254.000000	71.438	-166.0669
258.000000	71.355	-165.6850
262.000000	71.274	-165.3075
265.000000	71.214	-165.0186
269.000000	71.135	-164.6201
272.000000	71.075	-164.3125
276.000000	70.995	-163.8922
280.000000	70.915	-163.4638
285.000000	70.820	-162.9225
290.000000	70.728	-162.3591
295.000000	70.635	-161.7561
300.000000	70.543	-161.1236
304.000000	70.474	-160.6099
307.000000	70.426	-160.2220
311.000000	70.365	-159.6990
315.000000	70.307	-159.1664
320.000000	70.233	-158.4887
325.000000	70.158	-157.7919
330.000000	70.084	-157.0658
335.000000	70.017	-156.3092
340.000000	69.963	-155.5289
345.000000	69.922	-154.7426
350.000000	69.889	-153.9779
355.000000	69.859	-153.2547
360.000000	69.827	-152.5826
365.000000	69.791	-151.9652
370.000000	69.751	-151.3862
375.000000	69.710	-150.8203
382.000000	69.650	-150.0291
387.000000	69.607	-149.4590
395.000000	69.541	-148.5383
400.000000	69.503	-147.9605
406.000000	69.457	-147.2557
412.000000	69.408	-146.5476
418.000000	69.357	-145.8585
425.000000	69.299	-145.0735
431.000000	69.253	-144.3961
437.000000	69.211	-143.7123
444.000000	69.162	-142.9146
450.000000	69.120	-142.2263
455.000000	69.085	-141.6499
462.000000	69.037	-140.8467
468.000000	68.997	-140.1576
475.000000	68.953	-139.3467
482.000000	68.911	-138.5176
487.000000	68.883	-137.9099
494.000000	68.843	-137.0413
500.000000	68.810	-136.2822
508.000000	68.770	-135.2472
515.000000	68.738	-134.3235
522.000000	68.708	-133.3894
530.000000	68.675	-132.3157
538.000000	68.643	-131.2417
545.000000	68.615	-130.3110
552.000000	68.588	-129.3917
560.000000	68.558	-128.3464
570.000000	68.523	-127.0309
580.000000	68.488	-125.7018
590.000000	68.456	-124.3717
600.000000	68.431	-123.0553
608.000000	68.413	-122.0383
615.000000	68.398	-121.1839
622.000000	68.380	-120.3589
630.000000	68.359	-119.4397
640.000000	68.335	-118.3020
650.000000	68.319	-117.1551
660.000000	68.309	-115.9888
670.000000	68.301	-114.8018
680.000000	68.289	-113.5991
690.000000	68.279	-112.3873
700.000000	68.273	-111.1630
710.000000	68.270	-109.9090
720.000000	68.270	-108.6046
730.000000	68.272	-107.2324
740.000000	68.277	-105.7798
750.000000	68.287	-104.2427
762.000000	68.307	-102.2904
775.000000	68.335	-100.0819
788.000000	68.365	-97.8614
800.000000	68.395	-95.8563
812.000000	68.424	-93.9090
825.000000	68.460	-91.8705
838.000000	68.504	-89.8895
850.000000	68.553	-88.0937
862.000000	68.607	-86.3160
875.000000	68.672	-84.4156
885.000000	68.725	-82.9944
900.000000	68.806	-80.9453
912.000000	68.873	-79.3538
925.000000	68.948	-77.6485
938.000000	69.028	-75.9412
950.000000	69.107	-74.3388
962.000000	69.191	-72.7000
975.000000	69.288	-70.8986
988.000000	69.393	-69.1104
1000.000000	69.493	-67.5126
1015.000000	69.614	-65.6367
1030.000000	69.730	-63.9104
1044.000000	69.838	-62.4032
1060.000000	69.966	-60.7387
1075.000000	70.089	-59.1767
1090.000000	70.215	-57.5810
1106.000000	70.349	-55.8433
1120.000000	70.465	-54.3054
1138.000000	70.607	-52.3437
1150.000000	70.695	-51.0769
1172.000000	70.837	-48.8917
1180.000000	70.883	-48.1432
1206.000000	71.011	-45.8444
1220.000000	71.070	-44.6562
1241.000000	71.155	-42.8765
1250.000000	71.194	-42.1035
1265.000000	71.264	-40.8024
1280.000000	71.340	-39.4962
1315.000000	71.538	-36.5656
1320.000000	71.568	-36.1773
1340.000000	71.685	-34.7016
1360.000000	71.801	-33.3105
1380.000000	71.918	-31.9576
1400.000000	72.039	-30.6179
1430.000000	72.219	-28.7599
1450.000000	72.334	-27.7313
1475.000000	72.468	-26.7046
1500.000000	72.601	-25.8644
1525.000000	72.739	-25.0695
1550.000000	72.884	-24.2174
1575.000000	73.037	-23.2666
1600.000000	73.195	-22.2374
1625.000000	73.352	-21.1977
1650.000000	73.505	-20.2007
1675.000000	73.654	-19.2199
1700.000000	73.804	-18.1960
1725.000000	73.955	-17.0978
1750.000000	74.106	-15.9298
1775.000000	74.257	-14.7126
1800.000000	74.409	-13.4759
1825.000000	74.562	-12.2715
1850.000000	74.712	-11.1334
1875.000000	74.860	-10.0332
1900.000000	75.010	-8.8964
1925.000000	75.166	-7.6658
1950.000000	75.323	-6.3329
1975.000000	75.480	-4.9090
2000.000000	75.634	-3.3855
2030.000000	75.821	-1.4046
2060.000000	76.006	0.7216
2090.000000	76.185	2.9571
2120.000000	76.360	5.3047
2140.000000	76.479	6.9162
2180.000000	76.713	10.0688
2200.000000	76.823	11.5196
2240.000000	77.029	14.1071
2270.000000	77.176	15.8356
2300.000000	77.320	17.4706
2330.000000	77.459	19.0833
2360.000000	77.593	20.7436
2400.000000	77.765	23.1436
2430.000000	77.895	25.1003
2470.000000	78.069	27.6661
2500.000000	78.188	29.2525
2540.000000	78.319	30.6424
2580.000000	78.429	31.3680
2620.000000	78.534	31.7954
2650.000000	78.606	32.0508
2690.000000	78.693	32.3880
2720.000000	78.754	32.6682
2760.000000	78.826	33.0585
2800.000000	78.884	33.4478
2850.000000	78.947	33.9934
2900.000000	79.001	34.5999
2950.000000	79.039	35.1602
3000.000000	79.067	35.6796
3040.000000	79.085	36.0739
3070.000000	79.094	36.3292
3110.000000	79.101	36.5840
3150.000000	79.103	36.7279
3200.000000	79.097	36.7815
3250.000000	79.084	36.8309
3300.000000	79.075	37.0511
3350.000000	79.070	37.4387
3400.000000	79.067	37.7623
3450.000000	79.060	37.7583
3500.000000	79.049	37.3243
3550.000000	79.037	36.5877
3600.000000	79.030	35.7983
3650.000000	79.031	35.1300
3700.000000	79.038	34.6104
3750.000000	79.051	34.1511
3820.000000	79.067	33.3220
3870.000000	79.075	32.4869
3950.000000	79.088	30.8709
4000.000000	79.098	29.8181
4060.000000	79.114	28.6424
4120.000000	79.137	27.5821
4180.000000	79.159	26.5116
4250.000000	79.180	25.2158
4310.000000	79.196	24.1979
4370.000000	79.209	23.3337
4440.000000	79.218	22.3961
4500.000000	79.215	21.4050
4550.000000	79.202	20.3344
4620.000000	79.173	18.5736
4680.000000	79.142	16.9691
4750.000000	79.093	15.0129
4820.000000	79.027	13.0598
4870.000000	78.974	11.7896
4940.000000	78.890	10.2313
5000.000000	78.805	9.0451
5080.000000	78.673	7.6398
5150.000000	78.539	6.6051
5220.000000	78.388	5.8339
5300.000000	78.199	5.3778
5380.000000	77.993	5.3964
5450.000000	77.800	5.7611
5520.000000	77.597	6.4014
5600.000000	77.361	7.3777
5700.000000	77.057	8.6737
5800.000000	76.745	9.9202
5900.000000	76.433	11.4393
6000.000000	76.134	13.4823
6080.000000	75.907	15.2511
6150.000000	75.713	16.6248
6220.000000	75.528	17.8082
6300.000000	75.335	19.0454
6400.000000	75.123	20.3691
6500.000000	74.939	21.2071
6600.000000	74.790	21.4902
6700.000000	74.677	21.1789
6800.000000	74.603	20.3363
6900.000000	74.575	19.2288
7000.000000	74.597	18.0762
7100.000000	74.665	16.9463
7200.000000	74.777	15.8213
7300.000000	74.928	14.6003
7400.000000	75.112	13.1227
7500.000000	75.322	11.3589
7620.000000	75.601	9.0482
7750.000000	75.923	6.5743
7880.000000	76.241	4.1528
8000.000000	76.504	1.6710
8120.000000	76.705	-1.3749
8250.000000	76.819	-5.4604
8380.000000	76.786	-10.5236
8500.000000	76.604	-15.8938
8620.000000	76.282	-21.3847
8750.000000	75.787	-26.9578
8850.000000	75.318	-30.7782
9000.000000	74.506	-35.3780
9120.000000	73.796	-37.7829
9250.000000	72.998	-39.0757
9380.000000	72.199	-39.3683
9500.000000	71.487	-39.1464
9620.000000	70.829	-38.6067
9750.000000	70.203	-37.6730
9880.000000	69.686	-36.3643
10000.000000	69.306	-34.7894
10150.000000	68.955	-32.1681
10300.000000	68.735	-28.2890
10440.000000	68.650	-22.7764
10600.000000	68.695	-14.1151
10750.000000	68.872	-4.6508
10900.000000	69.179	4.8223
11060.000000	69.660	14.1474
11200.000000	70.221	21.4459
11380.000000	71.141	29.4195
11500.000000	71.877	33.6752
11720.000000	73.433	38.2953
11800.000000	74.032	38.5711
12060.000000	75.851	33.3335
12200.000000	76.578	27.0871
12410.000000	77.072	15.0209
12500.000000	77.022	9.4974
12650.000000	76.593	0.6707
12800.000000	75.790	-7.1709
13150.000000	73.057	-22.5653
13200.000000	72.629	-24.6386
13400.000000	70.953	-32.8452
13600.000000	69.426	-40.8900
13800.000000	68.099	-48.6217
14000.000000	66.987	-55.8316
14300.000000	65.710	-65.3471
14500.000000	65.087	-70.9880
14750.000000	64.517	-78.0873
15000.000000	64.155	-85.5857
15250.000000	64.000	-93.8621
15500.000000	64.065	-103.5314
15750.000000	64.325	-115.3729
16000.000000	64.697	-129.6053
16250.000000	65.073	-145.4686
16500.000000	65.344	-162.1679
16750.000000	65.453	-178.8436
17000.000000	65.388	164.6085
17250.000000	65.164	147.1630
17500.000000	64.815	128.6485
17750.000000	64.354	110.0157
18000.000000	63.764	91.9420
18250.000000	63.023	74.9062
18500.000000	62.125	59.2143
18750.000000	61.077	44.7110
19000.000000	59.907	31.7107
19250.000000	58.670	21.1622
19500.000000	57.457	13.2742
19750.000000	56.425	7.4731
20000.000000	55.827	4.0533
