* Measurement data measured by REW V5.20.13
* Source: Microphone (3- USB Audio Device), MICROPHONE (Master Volume), R, volume: 0.300. Timing signal peak level -24.9 dBFS, measurement signal peak level -24.9 dBFS
* Format: 256k Log Swept Sine, 1 sweep at -12.0 dBFS using an acoustic timing reference
* Dated: 30-Jan-2023 14:49:11
* REW Settings:
*  C-weighting compensation: Off
*  Target level: 75.0 dB
* Note: 
* Measurement: SoundPEATS Air3 Deluxe HS L
* Smoothing: 1/12 octave
* Frequency Step: 1/48 octave
* Start Frequency: 20.300 Hz
*
* Freq(Hz)	SPL(dB)	Phase(degrees)
20.299999	66.382	-58.8003
20.600000	66.453	-58.9616
20.900000	66.624	-59.2964
21.200001	66.804	-59.6444
21.400000	66.919	-59.8678
21.799999	67.138	-60.3104
22.000000	67.241	-60.5464
22.400000	67.435	-61.0988
22.700001	67.572	-61.6211
23.000000	67.703	-62.2607
23.299999	67.829	-63.0185
23.600000	67.953	-63.8776
24.000000	68.120	-65.1325
24.299999	68.250	-66.1060
24.700001	68.434	-67.3859
25.000000	68.581	-68.3003
25.400000	68.783	-69.4388
25.799999	68.987	-70.4865
26.200001	69.184	-71.4600
26.500000	69.324	-72.1547
26.900000	69.499	-73.0509
27.200001	69.622	-73.7139
27.600000	69.780	-74.6044
28.000000	69.935	-75.5213
28.500000	70.129	-76.7170
29.000000	70.321	-77.9437
29.500000	70.506	-79.1472
30.000000	70.683	-80.2778
30.400000	70.819	-81.1261
30.700001	70.919	-81.7418
31.100000	71.049	-82.5593
31.500000	71.175	-83.3909
32.000000	71.327	-84.4542
32.500000	71.477	-85.5136
33.000000	71.627	-86.5233
33.500000	71.778	-87.4601
34.000000	71.930	-88.3316
34.500000	72.075	-89.1656
35.000000	72.210	-89.9874
35.500000	72.334	-90.8115
36.000000	72.454	-91.6416
36.500000	72.577	-92.4777
37.000000	72.707	-93.3191
37.500000	72.843	-94.1609
38.200001	73.036	-95.3156
38.700001	73.166	-96.1027
39.500000	73.357	-97.2810
40.000000	73.467	-97.9791
40.599998	73.597	-98.7978
41.200001	73.731	-99.6120
41.799999	73.869	-100.4333
42.500000	74.029	-101.4099
43.099998	74.159	-102.2606
43.700001	74.280	-103.1135
44.400002	74.412	-104.1039
45.000000	74.521	-104.9511
45.500000	74.611	-105.6578
46.200001	74.733	-106.6450
46.799999	74.833	-107.4930
47.500000	74.944	-108.5103
48.200001	75.050	-109.5760
48.700001	75.120	-110.3508
49.400002	75.216	-111.4070
50.000000	75.299	-112.2626
50.799999	75.414	-113.3572
51.500000	75.520	-114.3209
52.200001	75.625	-115.3113
53.000000	75.740	-116.4503
53.799999	75.847	-117.5496
54.500000	75.934	-118.4742
55.200001	76.015	-119.3961
56.000000	76.104	-120.4801
57.000000	76.213	-121.8721
58.000000	76.321	-123.2616
59.000000	76.424	-124.6237
60.000000	76.522	-125.9600
60.799999	76.596	-127.0159
61.500000	76.660	-127.9314
62.200001	76.722	-128.8400
63.000000	76.791	-129.8754
64.000000	76.877	-131.1751
65.000000	76.958	-132.4712
66.000000	77.033	-133.7311
67.000000	77.099	-134.9391
68.000000	77.156	-136.1053
69.000000	77.206	-137.2512
70.000000	77.255	-138.4080
71.000000	77.307	-139.5969
72.000000	77.357	-140.8055
73.000000	77.402	-142.0031
74.000000	77.440	-143.1759
75.000000	77.474	-144.3417
76.199997	77.511	-145.7574
77.500000	77.541	-147.2767
78.800003	77.562	-148.7184
80.000000	77.573	-149.9998
81.199997	77.580	-151.2878
82.500000	77.586	-152.6974
83.800003	77.592	-154.0891
85.000000	77.593	-155.3582
86.199997	77.585	-156.6274
87.500000	77.568	-158.0004
88.500000	77.550	-159.0354
90.000000	77.516	-160.5110
91.199997	77.486	-161.6178
92.500000	77.449	-162.7748
93.800003	77.408	-163.9305
95.000000	77.370	-165.0018
96.199997	77.332	-166.0592
97.500000	77.289	-167.1802
98.800003	77.243	-168.2657
100.000000	77.196	-169.2129
101.500000	77.139	-170.3138
103.000000	77.083	-171.3701
104.400002	77.025	-172.3707
106.000000	76.951	-173.5363
107.500000	76.881	-174.5899
109.000000	76.816	-175.5579
110.599998	76.753	-176.5251
112.000000	76.700	-177.3552
113.800003	76.632	-178.4092
115.000000	76.584	-179.0960
117.199997	76.488	179.6901
118.000000	76.451	179.2599
120.599998	76.323	177.8663
122.000000	76.254	177.1274
124.099998	76.154	176.0784
125.000000	76.111	175.6576
126.500000	76.041	174.9928
128.000000	75.970	174.3638
131.500000	75.804	172.9747
132.000000	75.780	172.7828
134.000000	75.682	172.0278
136.000000	75.582	171.2820
138.000000	75.483	170.5518
140.000000	75.382	169.8701
143.000000	75.231	168.9555
145.000000	75.134	168.3817
147.500000	75.022	167.6580
150.000000	74.917	166.9258
152.500000	74.812	166.2285
155.000000	74.706	165.5818
157.500000	74.607	164.9510
160.000000	74.516	164.2996
162.500000	74.433	163.6537
165.000000	74.349	163.0630
167.500000	74.255	162.5231
170.000000	74.155	162.0110
172.500000	74.055	161.5224
175.000000	73.956	161.0484
177.500000	73.854	160.5843
180.000000	73.752	160.1421
182.500000	73.654	159.7343
185.000000	73.561	159.3611
187.500000	73.469	159.0056
190.000000	73.380	158.6441
192.500000	73.294	158.2644
195.000000	73.212	157.8773
197.500000	73.136	157.5084
200.000000	73.067	157.1711
203.000000	72.987	156.7972
206.000000	72.906	156.4149
209.000000	72.827	155.9942
212.000000	72.755	155.5641
214.000000	72.709	155.2949
218.000000	72.619	154.8319
220.000000	72.574	154.6399
224.000000	72.482	154.2898
227.000000	72.407	154.0031
230.000000	72.330	153.6871
233.000000	72.255	153.3716
236.000000	72.181	153.0815
240.000000	72.088	152.7440
243.000000	72.021	152.5120
247.000000	71.933	152.1655
250.000000	71.865	151.8361
254.000000	71.775	151.3436
258.000000	71.692	150.8773
262.000000	71.614	150.4386
265.000000	71.555	150.1078
269.000000	71.473	149.6670
272.000000	71.409	149.3461
276.000000	71.320	148.9253
280.000000	71.231	148.4951
285.000000	71.126	147.9480
290.000000	71.024	147.3986
295.000000	70.923	146.8415
300.000000	70.829	146.2860
304.000000	70.761	145.8381
307.000000	70.713	145.4955
311.000000	70.647	145.0326
315.000000	70.577	144.5712
320.000000	70.484	143.9991
325.000000	70.393	143.4340
330.000000	70.305	142.8904
335.000000	70.221	142.3649
340.000000	70.138	141.8439
345.000000	70.054	141.3441
350.000000	69.966	140.8881
355.000000	69.879	140.4456
360.000000	69.797	139.9656
365.000000	69.722	139.4293
370.000000	69.651	138.8512
375.000000	69.581	138.2724
382.000000	69.485	137.5258
387.000000	69.421	137.0354
395.000000	69.326	136.2681
400.000000	69.270	135.7729
406.000000	69.206	135.1492
412.000000	69.142	134.5058
418.000000	69.071	133.8602
425.000000	68.985	133.0867
431.000000	68.913	132.3790
437.000000	68.842	131.6162
444.000000	68.758	130.6655
450.000000	68.686	129.8330
455.000000	68.627	129.1514
462.000000	68.546	128.2166
468.000000	68.475	127.4330
475.000000	68.391	126.5638
482.000000	68.309	125.7498
487.000000	68.250	125.1830
494.000000	68.163	124.3806
500.000000	68.087	123.6845
508.000000	67.991	122.7610
515.000000	67.920	121.9572
522.000000	67.856	121.1558
530.000000	67.785	120.2466
538.000000	67.715	119.3720
545.000000	67.656	118.6609
552.000000	67.601	117.9955
560.000000	67.543	117.2643
570.000000	67.475	116.3322
580.000000	67.402	115.3161
590.000000	67.324	114.1949
600.000000	67.251	112.9891
608.000000	67.196	112.0045
615.000000	67.149	111.1495
622.000000	67.103	110.3011
630.000000	67.053	109.3265
640.000000	66.989	108.0748
650.000000	66.922	106.7633
660.000000	66.855	105.3550
670.000000	66.789	103.8641
680.000000	66.726	102.3470
690.000000	66.663	100.8107
700.000000	66.598	99.2854
710.000000	66.526	97.8248
720.000000	66.446	96.4076
730.000000	66.362	94.9927
740.000000	66.279	93.5698
750.000000	66.199	92.1193
762.000000	66.104	90.3030
775.000000	65.996	88.2330
788.000000	65.878	86.0788
800.000000	65.763	84.0754
812.000000	65.649	82.1003
825.000000	65.534	79.9963
838.000000	65.422	77.9388
850.000000	65.313	76.0796
862.000000	65.198	74.2572
875.000000	65.070	72.3154
885.000000	64.970	70.8304
900.000000	64.823	68.6349
912.000000	64.709	66.9388
925.000000	64.589	65.1534
938.000000	64.476	63.4036
950.000000	64.376	61.8354
962.000000	64.274	60.3172
975.000000	64.163	58.7051
988.000000	64.055	57.1223
1000.000000	63.961	55.7094
1015.000000	63.848	54.0188
1030.000000	63.739	52.3803
1044.000000	63.643	50.8706
1060.000000	63.549	49.1398
1075.000000	63.474	47.4667
1090.000000	63.408	45.7092
1106.000000	63.345	43.7325
1120.000000	63.291	41.9196
1138.000000	63.215	39.4899
1150.000000	63.163	37.8113
1172.000000	63.070	34.5989
1180.000000	63.037	33.3959
1206.000000	62.930	29.4389
1220.000000	62.875	27.3088
1241.000000	62.795	24.1727
1250.000000	62.760	22.8535
1265.000000	62.699	20.6750
1280.000000	62.635	18.5131
1315.000000	62.467	13.4683
1320.000000	62.439	12.7402
1340.000000	62.321	9.8271
1360.000000	62.199	6.9511
1380.000000	62.076	4.1187
1400.000000	61.947	1.3228
1430.000000	61.750	-2.7031
1450.000000	61.623	-5.2069
1475.000000	61.469	-8.1471
1500.000000	61.328	-10.9318
1525.000000	61.209	-13.6342
1550.000000	61.109	-16.3023
1575.000000	61.030	-18.9474
1600.000000	60.973	-21.5951
1625.000000	60.942	-24.2963
1650.000000	60.941	-27.0683
1675.000000	60.968	-29.8536
1700.000000	61.024	-32.5850
1725.000000	61.113	-35.2806
1750.000000	61.235	-38.0090
1775.000000	61.381	-40.8928
1800.000000	61.539	-44.0752
1825.000000	61.703	-47.6045
1850.000000	61.877	-51.3926
1875.000000	62.065	-55.3562
1900.000000	62.262	-59.5239
1925.000000	62.455	-63.9796
1950.000000	62.638	-68.7612
1975.000000	62.812	-73.8130
2000.000000	62.974	-79.0429
2030.000000	63.153	-85.4758
2060.000000	63.315	-92.0504
2090.000000	63.455	-98.7618
2120.000000	63.574	-105.5969
2140.000000	63.638	-110.1870
2180.000000	63.722	-119.3301
2200.000000	63.746	-123.8954
2240.000000	63.768	-133.2042
2270.000000	63.756	-140.4205
2300.000000	63.713	-147.7531
2330.000000	63.649	-155.0300
2360.000000	63.575	-162.1040
2400.000000	63.458	-171.2029
2430.000000	63.353	-177.8717
2470.000000	63.205	173.3741
2500.000000	63.093	166.8951
2540.000000	62.935	158.3015
2580.000000	62.762	149.6787
2620.000000	62.580	141.0726
2650.000000	62.446	134.7376
2690.000000	62.278	126.6071
2720.000000	62.161	120.8204
2760.000000	62.018	113.5380
2800.000000	61.889	106.6447
2850.000000	61.737	98.2485
2900.000000	61.597	89.8671
2950.000000	61.475	81.5665
3000.000000	61.368	73.3774
3040.000000	61.291	66.9095
3070.000000	61.239	62.1374
3110.000000	61.181	55.8705
3150.000000	61.134	49.6176
3200.000000	61.091	41.6534
3250.000000	61.068	33.3798
3300.000000	61.052	24.7118
3350.000000	61.045	15.7700
3400.000000	61.057	6.7969
3450.000000	61.094	-2.0923
3500.000000	61.155	-10.9705
3550.000000	61.237	-19.9329
3600.000000	61.347	-28.9637
3650.000000	61.492	-38.0310
3700.000000	61.673	-47.2006
3750.000000	61.892	-56.5863
3820.000000	62.280	-70.1357
3870.000000	62.617	-80.0739
3950.000000	63.238	-96.6610
4000.000000	63.665	-107.5808
4060.000000	64.209	-121.2129
4120.000000	64.764	-135.4258
4180.000000	65.298	-150.3804
4250.000000	65.851	-168.9338
4310.000000	66.252	174.3929
4370.000000	66.585	157.4995
4440.000000	66.892	138.3540
4500.000000	67.091	123.2129
4550.000000	67.224	112.0272
4620.000000	67.391	98.9686
4680.000000	67.516	89.8655
4750.000000	67.634	80.7504
4820.000000	67.731	72.4670
4870.000000	67.794	66.8450
4940.000000	67.877	59.3191
5000.000000	67.946	53.2754
5080.000000	68.044	46.0182
5150.000000	68.131	40.3390
5220.000000	68.213	34.9037
5300.000000	68.311	28.5393
5380.000000	68.431	21.7649
5450.000000	68.565	15.4156
5520.000000	68.731	8.6473
5600.000000	68.962	0.4298
5700.000000	69.294	-10.6002
5800.000000	69.635	-22.5719
5900.000000	69.946	-35.3035
6000.000000	70.198	-48.3318
6080.000000	70.348	-58.5234
6150.000000	70.438	-67.0897
6220.000000	70.486	-75.3838
6300.000000	70.482	-84.6710
6400.000000	70.397	-96.0518
6500.000000	70.244	-106.9747
6600.000000	70.060	-117.0411
6700.000000	69.903	-125.8115
6800.000000	69.832	-133.0314
6900.000000	69.900	-138.7548
7000.000000	70.154	-143.2493
7100.000000	70.632	-146.8685
7200.000000	71.353	-150.0649
7300.000000	72.298	-153.4799
7400.000000	73.397	-157.8778
7500.000000	74.547	-163.9127
7620.000000	75.863	-173.6700
7750.000000	77.091	172.8777
7880.000000	78.036	156.7738
8000.000000	78.650	140.1685
8120.000000	79.034	122.7705
8250.000000	79.203	103.8639
8380.000000	79.120	85.4480
8500.000000	78.820	69.1332
8620.000000	78.313	53.5902
8750.000000	77.558	37.7911
8850.000000	76.866	26.5492
9000.000000	75.712	11.3225
9120.000000	74.741	0.4612
9250.000000	73.687	-10.1086
9380.000000	72.670	-19.6240
9500.000000	71.786	-27.7905
9620.000000	70.973	-35.6327
9750.000000	70.189	-43.9149
9880.000000	69.525	-52.1052
10000.000000	69.030	-59.8386
10150.000000	68.560	-70.2649
10300.000000	68.220	-81.7966
10440.000000	67.991	-93.1868
10600.000000	67.804	-106.3322
10750.000000	67.680	-118.6217
10900.000000	67.595	-130.9420
11060.000000	67.544	-144.2881
11200.000000	67.526	-156.5151
11380.000000	67.533	-173.5692
11500.000000	67.559	174.0359
11720.000000	67.637	149.2183
11800.000000	67.674	139.6990
12060.000000	67.797	107.5696
12200.000000	67.825	89.3558
12410.000000	67.736	60.6584
12500.000000	67.633	48.0177
12650.000000	67.361	26.9198
12800.000000	66.961	6.3134
13150.000000	65.602	-37.2156
13200.000000	65.371	-42.8358
13400.000000	64.394	-64.0551
13600.000000	63.371	-83.5708
13800.000000	62.345	-101.8013
14000.000000	61.353	-119.4736
14300.000000	60.000	-146.4753
14500.000000	59.217	-165.0244
14750.000000	58.398	171.4827
15000.000000	57.749	147.1709
15250.000000	57.241	121.1824
15500.000000	56.853	92.8894
15750.000000	56.523	61.1550
16000.000000	56.146	24.4531
16250.000000	55.622	-17.9634
16500.000000	54.873	-65.9053
16750.000000	53.874	-118.1958
17000.000000	52.723	-171.6494
17250.000000	51.632	138.2173
17500.000000	50.774	94.5066
17750.000000	50.130	57.6284
18000.000000	49.523	26.5916
18250.000000	48.755	-0.4077
18500.000000	47.701	-27.1279
18750.000000	46.333	-61.4104
19000.000000	44.692	-118.3064
19250.000000	42.897	142.6328
19500.000000	41.155	-1.0894
19750.000000	39.712	-151.2749
