* Measurement data measured by REW V5.20.13
* Source: Frequency Response Averaged data
* Format: Averaged data produced from the rms magnitudes of Soundpeats H2, Soundpeats H2
* Dated: 31-Mar-2023 11:53:50
* REW Settings:
*  C-weighting compensation: Off
*  Target level: 75.0 dB
* Note: 
* Measurement: SoundPEATS H2 L
* Smoothing: 1/12 octave
* Frequency Step: 1/48 octave
* Start Frequency: 20.300 Hz
*
* Freq(Hz)	SPL(dB)
20.299999	69.730
20.600000	69.742
20.900000	69.777
21.200001	69.828
21.400000	69.867
21.799999	69.956
22.000000	70.006
22.400000	70.116
22.700001	70.205
23.000000	70.297
23.299999	70.391
23.600000	70.484
24.000000	70.606
24.299999	70.694
24.700001	70.801
25.000000	70.873
25.400000	70.957
25.799999	71.033
26.200001	71.107
26.500000	71.163
26.900000	71.241
27.200001	71.300
27.600000	71.376
28.000000	71.448
28.500000	71.531
29.000000	71.609
29.500000	71.684
30.000000	71.753
30.400000	71.805
30.700001	71.842
31.100000	71.890
31.500000	71.939
32.000000	72.002
32.500000	72.066
33.000000	72.130
33.500000	72.188
34.000000	72.242
34.500000	72.292
35.000000	72.341
35.500000	72.393
36.000000	72.448
36.500000	72.506
37.000000	72.565
37.500000	72.625
38.200001	72.709
38.700001	72.770
39.500000	72.869
40.000000	72.930
40.599998	73.002
41.200001	73.072
41.799999	73.140
42.500000	73.217
43.099998	73.281
43.700001	73.341
44.400002	73.404
45.000000	73.452
45.500000	73.488
46.200001	73.530
46.799999	73.560
47.500000	73.586
48.200001	73.597
48.700001	73.595
49.400002	73.577
50.000000	73.549
50.799999	73.498
51.500000	73.444
52.200001	73.381
53.000000	73.297
53.799999	73.201
54.500000	73.108
55.200001	73.002
56.000000	72.864
57.000000	72.675
58.000000	72.482
59.000000	72.301
60.000000	72.134
60.799999	72.007
61.500000	71.896
62.200001	71.785
63.000000	71.659
64.000000	71.507
65.000000	71.361
66.000000	71.221
67.000000	71.084
68.000000	70.949
69.000000	70.812
70.000000	70.670
71.000000	70.525
72.000000	70.382
73.000000	70.244
74.000000	70.109
75.000000	69.977
76.199997	69.819
77.500000	69.648
78.800003	69.472
80.000000	69.307
81.199997	69.147
82.500000	68.982
83.800003	68.816
85.000000	68.659
86.199997	68.501
87.500000	68.328
88.500000	68.193
90.000000	67.991
91.199997	67.831
92.500000	67.658
93.800003	67.485
95.000000	67.329
96.199997	67.176
97.500000	67.012
98.800003	66.849
100.000000	66.697
101.500000	66.504
103.000000	66.309
104.400002	66.130
106.000000	65.933
107.500000	65.752
109.000000	65.571
110.599998	65.374
112.000000	65.200
113.800003	64.973
115.000000	64.822
117.199997	64.551
118.000000	64.455
120.599998	64.148
122.000000	63.985
124.099998	63.746
125.000000	63.646
126.500000	63.484
128.000000	63.328
131.500000	62.975
132.000000	62.926
134.000000	62.728
136.000000	62.538
138.000000	62.360
140.000000	62.197
143.000000	61.974
145.000000	61.832
147.500000	61.664
150.000000	61.515
152.500000	61.379
155.000000	61.245
157.500000	61.118
160.000000	61.011
162.500000	60.927
165.000000	60.855
167.500000	60.790
170.000000	60.732
172.500000	60.681
175.000000	60.637
177.500000	60.604
180.000000	60.584
182.500000	60.573
185.000000	60.570
187.500000	60.573
190.000000	60.577
192.500000	60.583
195.000000	60.592
197.500000	60.606
200.000000	60.620
203.000000	60.639
206.000000	60.663
209.000000	60.691
212.000000	60.723
214.000000	60.745
218.000000	60.787
220.000000	60.807
224.000000	60.846
227.000000	60.873
230.000000	60.898
233.000000	60.919
236.000000	60.939
240.000000	60.965
243.000000	60.984
247.000000	61.008
250.000000	61.026
254.000000	61.054
258.000000	61.085
262.000000	61.120
265.000000	61.143
269.000000	61.170
272.000000	61.186
276.000000	61.205
280.000000	61.223
285.000000	61.244
290.000000	61.264
295.000000	61.280
300.000000	61.288
304.000000	61.289
307.000000	61.287
311.000000	61.284
315.000000	61.281
320.000000	61.277
325.000000	61.272
330.000000	61.264
335.000000	61.253
340.000000	61.236
345.000000	61.220
350.000000	61.207
355.000000	61.196
360.000000	61.181
365.000000	61.159
370.000000	61.134
375.000000	61.109
382.000000	61.076
387.000000	61.055
395.000000	61.029
400.000000	61.020
406.000000	61.010
412.000000	60.998
418.000000	60.980
425.000000	60.951
431.000000	60.920
437.000000	60.887
444.000000	60.845
450.000000	60.808
455.000000	60.779
462.000000	60.741
468.000000	60.713
475.000000	60.685
482.000000	60.659
487.000000	60.640
494.000000	60.610
500.000000	60.580
508.000000	60.540
515.000000	60.506
522.000000	60.474
530.000000	60.440
538.000000	60.408
545.000000	60.381
552.000000	60.354
560.000000	60.322
570.000000	60.285
580.000000	60.251
590.000000	60.218
600.000000	60.183
608.000000	60.155
615.000000	60.133
622.000000	60.112
630.000000	60.089
640.000000	60.061
650.000000	60.035
660.000000	60.011
670.000000	59.991
680.000000	59.973
690.000000	59.951
700.000000	59.927
710.000000	59.907
720.000000	59.893
730.000000	59.883
740.000000	59.871
750.000000	59.858
762.000000	59.848
775.000000	59.843
788.000000	59.843
800.000000	59.844
812.000000	59.849
825.000000	59.861
838.000000	59.881
850.000000	59.904
862.000000	59.934
875.000000	59.978
885.000000	60.018
900.000000	60.083
912.000000	60.135
925.000000	60.196
938.000000	60.264
950.000000	60.335
962.000000	60.408
975.000000	60.490
988.000000	60.574
1000.000000	60.653
1015.000000	60.755
1030.000000	60.861
1044.000000	60.963
1060.000000	61.084
1075.000000	61.198
1090.000000	61.312
1106.000000	61.431
1120.000000	61.534
1138.000000	61.671
1150.000000	61.767
1172.000000	61.941
1180.000000	62.002
1206.000000	62.193
1220.000000	62.296
1241.000000	62.450
1250.000000	62.515
1265.000000	62.623
1280.000000	62.729
1315.000000	62.967
1320.000000	62.999
1340.000000	63.129
1360.000000	63.268
1380.000000	63.423
1400.000000	63.589
1430.000000	63.840
1450.000000	64.003
1475.000000	64.205
1500.000000	64.410
1525.000000	64.622
1550.000000	64.839
1575.000000	65.057
1600.000000	65.273
1625.000000	65.491
1650.000000	65.713
1675.000000	65.939
1700.000000	66.162
1725.000000	66.381
1750.000000	66.598
1775.000000	66.813
1800.000000	67.024
1825.000000	67.228
1850.000000	67.424
1875.000000	67.616
1900.000000	67.805
1925.000000	67.989
1950.000000	68.165
1975.000000	68.331
2000.000000	68.489
2030.000000	68.670
2060.000000	68.840
2090.000000	68.998
2120.000000	69.150
2140.000000	69.250
2180.000000	69.445
2200.000000	69.539
2240.000000	69.721
2270.000000	69.855
2300.000000	69.988
2330.000000	70.120
2360.000000	70.248
2400.000000	70.406
2430.000000	70.514
2470.000000	70.642
2500.000000	70.725
2540.000000	70.814
2580.000000	70.881
2620.000000	70.927
2650.000000	70.946
2690.000000	70.949
2720.000000	70.936
2760.000000	70.901
2800.000000	70.849
2850.000000	70.758
2900.000000	70.632
2950.000000	70.476
3000.000000	70.294
3040.000000	70.133
3070.000000	70.006
3110.000000	69.828
3150.000000	69.640
3200.000000	69.389
3250.000000	69.122
3300.000000	68.845
3350.000000	68.567
3400.000000	68.292
3450.000000	68.022
3500.000000	67.759
3550.000000	67.502
3600.000000	67.250
3650.000000	67.007
3700.000000	66.780
3750.000000	66.572
3820.000000	66.313
3870.000000	66.149
3950.000000	65.929
4000.000000	65.820
4060.000000	65.717
4120.000000	65.647
4180.000000	65.610
4250.000000	65.607
4310.000000	65.635
4370.000000	65.689
4440.000000	65.771
4500.000000	65.832
4550.000000	65.847
4620.000000	65.759
4680.000000	65.543
4750.000000	65.102
4820.000000	64.479
4870.000000	63.961
4940.000000	63.213
5000.000000	62.618
5080.000000	61.971
5150.000000	61.559
5220.000000	61.265
5300.000000	61.024
5380.000000	60.848
5450.000000	60.729
5520.000000	60.634
5600.000000	60.544
5700.000000	60.447
5800.000000	60.362
5900.000000	60.299
6000.000000	60.264
6080.000000	60.253
6150.000000	60.258
6220.000000	60.280
6300.000000	60.329
6400.000000	60.432
6500.000000	60.581
6600.000000	60.777
6700.000000	61.021
6800.000000	61.322
6900.000000	61.680
7000.000000	62.095
7100.000000	62.570
7200.000000	63.106
7300.000000	63.696
7400.000000	64.326
7500.000000	64.970
7620.000000	65.714
7750.000000	66.404
7880.000000	66.879
8000.000000	67.060
8120.000000	66.960
8250.000000	66.542
8380.000000	65.850
8500.000000	65.037
8620.000000	64.126
8750.000000	63.106
8850.000000	62.338
9000.000000	61.252
9120.000000	60.461
9250.000000	59.696
9380.000000	59.024
9500.000000	58.476
9620.000000	57.991
9750.000000	57.541
9880.000000	57.171
10000.000000	56.903
10150.000000	56.661
10300.000000	56.511
10440.000000	56.445
10600.000000	56.451
10750.000000	56.527
10900.000000	56.668
11060.000000	56.892
11200.000000	57.151
11380.000000	57.543
11500.000000	57.825
11720.000000	58.334
11800.000000	58.503
12060.000000	58.909
12200.000000	59.005
12410.000000	58.945
12500.000000	58.841
12650.000000	58.573
12800.000000	58.203
13150.000000	57.115
13200.000000	56.951
13400.000000	56.319
13600.000000	55.761
13800.000000	55.330
14000.000000	55.070
14300.000000	55.048
14500.000000	55.284
14750.000000	55.818
15000.000000	56.449
15250.000000	56.916
15500.000000	56.981
15750.000000	56.500
16000.000000	55.460
16250.000000	53.982
16500.000000	52.320
16750.000000	50.775
17000.000000	49.534
17250.000000	48.655
17500.000000	48.149
17750.000000	48.029
18000.000000	48.295
18250.000000	48.902
18500.000000	49.749
18750.000000	50.693
19000.000000	51.579
19250.000000	52.269
19500.000000	52.689
19750.000000	52.862
