* Measurement data measured by REW V5.20.13
* Source: Microphone (USB Audio Device), MICROPHONE (Master Volume), R, volume: 0.250
* Format: 256k Log Swept Sine, 1 sweep at -12.0 dBFS with no timing reference
* Dated: 09-Oct-2023 09:54:50
* REW Settings:
*  C-weighting compensation: Off
*  Target level: 75.0 dB
* Note: 
* Measurement: Soundcore Space A40 R
* Smoothing: 1/12 octave
* Frequency Step: 1/48 octave
* Start Frequency: 20.300 Hz
*
* Freq(Hz)	SPL(dB)	Phase(degrees)
20.299999	74.606	-115.6703
20.600000	74.690	-115.8745
20.900000	74.882	-116.2918
21.200001	75.065	-116.7004
21.400000	75.173	-116.9278
21.799999	75.362	-117.2631
22.000000	75.449	-117.3818
22.400000	75.620	-117.5893
22.700001	75.750	-117.7894
23.000000	75.879	-118.0860
23.299999	76.005	-118.5042
23.600000	76.125	-119.0456
24.000000	76.274	-119.9326
24.299999	76.376	-120.6769
24.700001	76.504	-121.6973
25.000000	76.595	-122.4230
25.400000	76.715	-123.2715
25.799999	76.837	-123.9484
26.200001	76.965	-124.4766
26.500000	77.064	-124.8202
26.900000	77.195	-125.2785
27.200001	77.290	-125.6692
27.600000	77.407	-126.2959
28.000000	77.511	-127.0645
28.500000	77.620	-128.2146
29.000000	77.703	-129.5061
29.500000	77.762	-130.8141
30.000000	77.809	-131.9899
30.400000	77.854	-132.7906
30.700001	77.901	-133.3308
31.100000	77.983	-134.0467
31.500000	78.081	-134.8355
32.000000	78.200	-135.9660
32.500000	78.288	-137.1461
33.000000	78.338	-138.1716
33.500000	78.368	-138.9444
34.000000	78.401	-139.5445
34.500000	78.444	-140.1421
35.000000	78.492	-140.8443
35.500000	78.540	-141.6609
36.000000	78.590	-142.5550
36.500000	78.643	-143.5008
37.000000	78.692	-144.4699
37.500000	78.728	-145.4081
38.200001	78.755	-146.5526
38.700001	78.767	-147.2352
39.500000	78.793	-148.2415
40.000000	78.813	-148.8856
40.599998	78.841	-149.6768
41.200001	78.874	-150.4775
41.799999	78.907	-151.3054
42.500000	78.930	-152.3007
43.099998	78.929	-153.1089
43.700001	78.921	-153.8161
44.400002	78.922	-154.5345
45.000000	78.935	-155.1186
45.500000	78.950	-155.6036
46.200001	78.966	-156.2730
46.799999	78.972	-156.8352
47.500000	78.975	-157.4956
48.200001	78.981	-158.1772
48.700001	78.992	-158.6782
49.400002	79.013	-159.3874
50.000000	79.027	-159.9742
50.799999	79.031	-160.6673
51.500000	79.026	-161.1785
52.200001	79.022	-161.6525
53.000000	79.024	-162.2249
53.799999	79.029	-162.8638
54.500000	79.032	-163.4735
55.200001	79.028	-164.1046
56.000000	79.014	-164.7921
57.000000	78.993	-165.5429
58.000000	78.977	-166.2306
59.000000	78.971	-166.9213
60.000000	78.977	-167.6173
60.799999	78.987	-168.1639
61.500000	78.991	-168.6152
62.200001	78.988	-169.0317
63.000000	78.976	-169.4772
64.000000	78.957	-170.0239
65.000000	78.938	-170.5875
66.000000	78.919	-171.1728
67.000000	78.900	-171.7547
68.000000	78.890	-172.3092
69.000000	78.892	-172.8368
70.000000	78.894	-173.3450
71.000000	78.887	-173.8449
72.000000	78.874	-174.3513
73.000000	78.861	-174.8765
74.000000	78.850	-175.4211
75.000000	78.834	-175.9700
76.199997	78.808	-176.6118
77.500000	78.784	-177.2667
78.800003	78.767	-177.8917
80.000000	78.749	-178.4831
81.199997	78.729	-179.0974
82.500000	78.704	-179.7455
83.800003	78.674	179.6513
85.000000	78.647	179.1136
86.199997	78.626	178.5767
87.500000	78.607	178.0015
88.500000	78.591	177.5707
90.000000	78.560	176.9388
91.199997	78.531	176.4417
92.500000	78.497	175.9121
93.800003	78.462	175.3947
95.000000	78.430	174.9311
96.199997	78.398	174.4759
97.500000	78.363	173.9806
98.800003	78.323	173.4693
100.000000	78.282	172.9768
101.500000	78.228	172.3491
103.000000	78.171	171.7480
104.400002	78.119	171.2397
106.000000	78.065	170.7151
107.500000	78.012	170.2362
109.000000	77.954	169.7434
110.599998	77.891	169.2108
112.000000	77.836	168.7444
113.800003	77.762	168.1469
115.000000	77.714	167.7684
117.199997	77.626	167.1430
118.000000	77.593	166.9311
120.599998	77.475	166.2822
122.000000	77.406	165.9612
124.099998	77.303	165.4801
125.000000	77.260	165.2626
126.500000	77.191	164.8877
128.000000	77.122	164.5203
131.500000	76.955	163.8060
132.000000	76.930	163.7192
134.000000	76.826	163.3906
136.000000	76.719	163.0813
138.000000	76.609	162.7893
140.000000	76.500	162.5133
143.000000	76.346	162.1649
145.000000	76.249	162.0055
147.500000	76.127	161.8756
150.000000	76.000	161.7931
152.500000	75.875	161.7494
155.000000	75.756	161.7537
157.500000	75.642	161.8247
160.000000	75.529	161.9265
162.500000	75.415	162.0051
165.000000	75.305	162.0792
167.500000	75.202	162.1968
170.000000	75.103	162.3876
172.500000	75.004	162.6720
175.000000	74.905	163.0314
177.500000	74.807	163.4003
180.000000	74.707	163.7269
182.500000	74.604	164.0202
185.000000	74.493	164.3314
187.500000	74.371	164.6945
190.000000	74.245	165.1082
192.500000	74.126	165.5674
195.000000	74.022	166.0592
197.500000	73.939	166.5574
200.000000	73.877	167.0428
203.000000	73.827	167.6060
206.000000	73.796	168.1629
209.000000	73.769	168.7339
212.000000	73.734	169.3267
214.000000	73.707	169.7312
218.000000	73.650	170.5641
220.000000	73.620	170.9933
224.000000	73.561	171.8628
227.000000	73.518	172.5082
230.000000	73.480	173.1432
233.000000	73.452	173.7865
236.000000	73.430	174.4611
240.000000	73.405	175.4013
243.000000	73.388	176.1144
247.000000	73.369	177.0649
250.000000	73.361	177.7750
254.000000	73.359	178.7082
258.000000	73.365	179.6182
262.000000	73.384	-179.4725
265.000000	73.405	-178.7694
269.000000	73.437	-177.8207
272.000000	73.462	-177.1254
276.000000	73.501	-176.2312
280.000000	73.549	-175.3590
285.000000	73.620	-174.2869
290.000000	73.696	-173.2530
295.000000	73.772	-172.2520
300.000000	73.852	-171.2725
304.000000	73.925	-170.5257
307.000000	73.984	-169.9942
311.000000	74.068	-169.3190
315.000000	74.160	-168.6670
320.000000	74.281	-167.8763
325.000000	74.402	-167.1446
330.000000	74.522	-166.4891
335.000000	74.642	-165.8758
340.000000	74.770	-165.2676
345.000000	74.910	-164.6816
350.000000	75.059	-164.1511
355.000000	75.210	-163.6906
360.000000	75.363	-163.2925
365.000000	75.517	-162.9297
370.000000	75.668	-162.5933
375.000000	75.814	-162.3179
382.000000	76.010	-162.0751
387.000000	76.151	-161.9789
395.000000	76.386	-161.9098
400.000000	76.534	-161.9120
406.000000	76.707	-161.9680
412.000000	76.867	-162.1002
418.000000	77.012	-162.3098
425.000000	77.169	-162.6242
431.000000	77.301	-162.9329
437.000000	77.424	-163.2615
444.000000	77.555	-163.6398
450.000000	77.660	-163.9516
455.000000	77.749	-164.2036
462.000000	77.879	-164.5239
468.000000	77.990	-164.7591
475.000000	78.112	-165.0496
482.000000	78.227	-165.4683
487.000000	78.306	-165.8843
494.000000	78.412	-166.6008
500.000000	78.495	-167.2852
508.000000	78.585	-168.2448
515.000000	78.631	-169.1038
522.000000	78.648	-169.9485
530.000000	78.643	-170.8472
538.000000	78.632	-171.6472
545.000000	78.627	-172.2765
552.000000	78.630	-172.8553
560.000000	78.637	-173.4713
570.000000	78.645	-174.2020
580.000000	78.645	-174.8776
590.000000	78.629	-175.4837
600.000000	78.594	-176.0454
608.000000	78.553	-176.4784
615.000000	78.513	-176.8484
622.000000	78.474	-177.2204
630.000000	78.431	-177.6653
640.000000	78.367	-178.2276
650.000000	78.291	-178.7328
660.000000	78.214	-179.1704
670.000000	78.135	-179.5555
680.000000	78.050	-179.8775
690.000000	77.959	179.8885
700.000000	77.870	179.7371
710.000000	77.787	179.6315
720.000000	77.701	179.5558
730.000000	77.605	179.5164
740.000000	77.503	179.5170
750.000000	77.405	179.5328
762.000000	77.302	179.5566
775.000000	77.205	179.6536
788.000000	77.117	179.8444
800.000000	77.046	-179.9249
812.000000	76.981	-179.6833
825.000000	76.912	-179.4043
838.000000	76.839	-179.0912
850.000000	76.774	-178.7897
862.000000	76.717	-178.4735
875.000000	76.669	-178.0962
885.000000	76.640	-177.7797
900.000000	76.607	-177.2797
912.000000	76.586	-176.8531
925.000000	76.569	-176.3384
938.000000	76.556	-175.7731
950.000000	76.549	-175.2490
962.000000	76.548	-174.7452
975.000000	76.557	-174.2065
988.000000	76.575	-173.6681
1000.000000	76.596	-173.2006
1015.000000	76.626	-172.7045
1030.000000	76.657	-172.3144
1044.000000	76.687	-172.0213
1060.000000	76.729	-171.7371
1075.000000	76.775	-171.5076
1090.000000	76.818	-171.3441
1106.000000	76.859	-171.2899
1120.000000	76.893	-171.3258
1138.000000	76.940	-171.4126
1150.000000	76.974	-171.4588
1172.000000	77.042	-171.4339
1180.000000	77.069	-171.3787
1206.000000	77.169	-171.0374
1220.000000	77.231	-170.7692
1241.000000	77.329	-170.3400
1250.000000	77.373	-170.1782
1265.000000	77.449	-169.9761
1280.000000	77.523	-169.8766
1315.000000	77.660	-169.9817
1320.000000	77.672	-170.0174
1340.000000	77.692	-170.1399
1360.000000	77.668	-170.1753
1380.000000	77.613	-170.1239
1400.000000	77.545	-170.0193
1430.000000	77.456	-169.7652
1450.000000	77.427	-169.5060
1475.000000	77.431	-169.1124
1500.000000	77.474	-168.7384
1525.000000	77.534	-168.4803
1550.000000	77.603	-168.3479
1575.000000	77.679	-168.3142
1600.000000	77.760	-168.3356
1625.000000	77.841	-168.3808
1650.000000	77.925	-168.5052
1675.000000	78.012	-168.7594
1700.000000	78.101	-169.0987
1725.000000	78.190	-169.4544
1750.000000	78.278	-169.8118
1775.000000	78.370	-170.2006
1800.000000	78.466	-170.6449
1825.000000	78.565	-171.1320
1850.000000	78.666	-171.6012
1875.000000	78.769	-171.9990
1900.000000	78.870	-172.3122
1925.000000	78.964	-172.5477
1950.000000	79.051	-172.7037
1975.000000	79.135	-172.7628
2000.000000	79.220	-172.7413
2030.000000	79.326	-172.7324
2060.000000	79.427	-172.9491
2090.000000	79.512	-173.5091
2120.000000	79.578	-174.3065
2140.000000	79.617	-174.8567
2180.000000	79.696	-175.7517
2200.000000	79.739	-176.0473
2240.000000	79.826	-176.3303
2270.000000	79.896	-176.3277
2300.000000	79.963	-176.2120
2330.000000	80.020	-176.0459
2360.000000	80.071	-175.8604
2400.000000	80.147	-175.6395
2430.000000	80.211	-175.6009
2470.000000	80.296	-175.8951
2500.000000	80.357	-176.3781
2540.000000	80.441	-177.2229
2580.000000	80.526	-178.1292
2620.000000	80.604	-178.9996
2650.000000	80.658	-179.6113
2690.000000	80.722	179.6132
2720.000000	80.767	179.0330
2760.000000	80.822	178.2031
2800.000000	80.875	177.2554
2850.000000	80.942	175.8918
2900.000000	81.008	174.4728
2950.000000	81.067	173.2338
3000.000000	81.118	172.2068
3040.000000	81.151	171.4138
3070.000000	81.170	170.7754
3110.000000	81.182	169.8532
3150.000000	81.184	168.8662
3200.000000	81.172	167.5519
3250.000000	81.147	166.1972
3300.000000	81.117	164.9717
3350.000000	81.083	164.0079
3400.000000	81.039	163.2426
3450.000000	80.979	162.5013
3500.000000	80.904	161.7129
3550.000000	80.822	160.9627
3600.000000	80.741	160.3680
3650.000000	80.665	159.9529
3700.000000	80.593	159.6535
3750.000000	80.530	159.3892
3820.000000	80.457	158.8840
3870.000000	80.410	158.2953
3950.000000	80.334	157.0519
4000.000000	80.285	156.2877
4060.000000	80.220	155.4791
4120.000000	80.139	154.7299
4180.000000	80.044	154.0345
4250.000000	79.921	153.3795
4310.000000	79.807	152.9449
4370.000000	79.689	152.5989
4440.000000	79.561	152.3148
4500.000000	79.473	152.1018
4550.000000	79.417	151.8236
4620.000000	79.368	151.1403
4680.000000	79.357	150.2685
4750.000000	79.376	148.9471
4820.000000	79.408	147.2718
4870.000000	79.421	145.8520
4940.000000	79.401	143.6438
5000.000000	79.331	141.6921
5080.000000	79.141	139.2805
5150.000000	78.882	137.6434
5220.000000	78.552	136.7877
5300.000000	78.138	137.1230
5380.000000	77.768	138.8532
5450.000000	77.544	141.0111
5520.000000	77.418	143.1429
5600.000000	77.317	145.1927
5700.000000	77.175	147.5043
5800.000000	77.122	149.2368
5900.000000	77.079	149.2593
6000.000000	76.839	148.5977
6080.000000	76.557	148.6784
6150.000000	76.354	149.3142
6220.000000	76.249	150.1691
6300.000000	76.200	151.1071
6400.000000	76.099	152.5812
6500.000000	75.921	154.8834
6600.000000	75.731	157.7263
6700.000000	75.579	160.6660
6800.000000	75.487	163.6422
6900.000000	75.463	166.7522
7000.000000	75.503	169.9030
7100.000000	75.608	173.0732
7200.000000	75.790	176.5016
7300.000000	76.052	-179.5322
7400.000000	76.395	-174.8831
7500.000000	76.824	-169.5977
7620.000000	77.455	-162.7093
7750.000000	78.251	-155.1643
7880.000000	79.130	-148.1994
8000.000000	80.011	-142.5763
8120.000000	80.978	-137.8422
8250.000000	82.119	-134.1339
8380.000000	83.274	-132.9404
8500.000000	84.193	-135.1794
8620.000000	84.788	-141.0907
8750.000000	84.892	-150.9005
8850.000000	84.534	-159.5344
9000.000000	83.344	-171.0502
9120.000000	81.980	-176.6954
9250.000000	80.291	-178.2117
9380.000000	78.547	-175.5899
9500.000000	76.988	-170.6656
9620.000000	75.534	-164.4841
9750.000000	74.099	-157.5877
9880.000000	72.799	-151.5189
10000.000000	71.702	-146.9558
10150.000000	70.456	-142.0511
10300.000000	69.330	-137.0165
10440.000000	68.369	-131.8275
10600.000000	67.352	-125.7155
10750.000000	66.462	-120.4477
10900.000000	65.627	-115.8934
11060.000000	64.800	-111.3830
11200.000000	64.130	-107.1860
11380.000000	63.334	-101.0578
11500.000000	62.843	-96.5213
11720.000000	62.030	-87.6637
11800.000000	61.761	-84.3900
12060.000000	60.986	-73.5335
12200.000000	60.633	-67.0686
12410.000000	60.191	-55.6508
12500.000000	60.031	-50.1079
12650.000000	59.793	-40.3009
12800.000000	59.582	-30.1711
13150.000000	59.141	-6.9153
13200.000000	59.083	-3.7307
13400.000000	58.878	8.5310
13600.000000	58.778	19.9225
13800.000000	58.856	30.3027
14000.000000	59.183	40.1164
14300.000000	60.316	55.6024
14500.000000	61.537	66.9378
14750.000000	63.414	81.8648
15000.000000	65.289	95.9379
15250.000000	66.794	106.6091
15500.000000	67.706	112.0125
15750.000000	67.955	112.8272
16000.000000	67.709	112.1339
16250.000000	67.322	112.2623
16500.000000	67.045	113.7429
16750.000000	66.844	116.6117
17000.000000	66.557	121.1319
17250.000000	66.089	127.5668
17500.000000	65.452	135.8279
17750.000000	64.737	145.4896
18000.000000	64.067	156.2772
18250.000000	63.549	168.2989
18500.000000	63.235	-178.4414
18750.000000	63.120	-164.6750
19000.000000	63.172	-151.6087
19250.000000	63.332	-140.3757
19500.000000	63.515	-131.7876
19750.000000	63.649	-126.2189
