* Measurement data measured by REW V5.20.13
* Source: Microphone (USB Audio Device), MICROPHONE (Master Volume), R, volume: 0.250
* Format: 256k Log Swept Sine, 1 sweep at -12.0 dBFS with no timing reference
* Dated: 09-Oct-2023 09:53:09
* REW Settings:
*  C-weighting compensation: Off
*  Target level: 75.0 dB
* Note: 
* Measurement: Soundcore Space A40 L
* Smoothing: 1/12 octave
* Frequency Step: 1/48 octave
* Start Frequency: 20.300 Hz
*
* Freq(Hz)	SPL(dB)	Phase(degrees)
20.299999	73.758	-76.4777
20.600000	73.803	-76.9614
20.900000	73.916	-77.9824
21.200001	74.049	-79.0954
21.400000	74.146	-79.8279
21.799999	74.354	-81.2229
22.000000	74.462	-81.8698
22.400000	74.683	-83.0581
22.700001	74.848	-83.8665
23.000000	75.007	-84.6234
23.299999	75.158	-85.3569
23.600000	75.300	-86.0943
24.000000	75.476	-87.1237
24.299999	75.600	-87.9506
24.700001	75.756	-89.1295
25.000000	75.870	-90.0559
25.400000	76.018	-91.3136
25.799999	76.164	-92.5551
26.200001	76.306	-93.7525
26.500000	76.410	-94.6192
26.900000	76.539	-95.7422
27.200001	76.628	-96.5686
27.600000	76.734	-97.6545
28.000000	76.826	-98.7168
28.500000	76.927	-99.9945
29.000000	77.022	-101.2116
29.500000	77.114	-102.3917
30.000000	77.203	-103.5703
30.400000	77.266	-104.5237
30.700001	77.307	-105.2436
31.100000	77.354	-106.2048
31.500000	77.396	-107.1647
32.000000	77.448	-108.3643
32.500000	77.501	-109.5642
33.000000	77.557	-110.7505
33.500000	77.612	-111.8976
34.000000	77.666	-112.9821
34.500000	77.716	-113.9980
35.000000	77.762	-114.9559
35.500000	77.803	-115.8756
36.000000	77.841	-116.7765
36.500000	77.876	-117.6711
37.000000	77.907	-118.5606
37.500000	77.932	-119.4342
38.200001	77.959	-120.6027
38.700001	77.975	-121.3922
39.500000	78.002	-122.6035
40.000000	78.018	-123.3420
40.599998	78.035	-124.2089
41.200001	78.052	-125.0504
41.799999	78.070	-125.8697
42.500000	78.091	-126.8026
43.099998	78.107	-127.5788
43.700001	78.122	-128.3316
44.400002	78.136	-129.1839
45.000000	78.144	-129.8879
45.500000	78.147	-130.4455
46.200001	78.150	-131.1758
46.799999	78.155	-131.7685
47.500000	78.163	-132.4473
48.200001	78.173	-133.1223
48.700001	78.181	-133.6016
49.400002	78.188	-134.2681
50.000000	78.189	-134.8331
50.799999	78.180	-135.5644
51.500000	78.169	-136.1722
52.200001	78.158	-136.7464
53.000000	78.149	-137.3642
53.799999	78.138	-137.9572
54.500000	78.127	-138.4756
55.200001	78.114	-138.9969
56.000000	78.101	-139.5758
57.000000	78.094	-140.2439
58.000000	78.093	-140.8664
59.000000	78.089	-141.4918
60.000000	78.078	-142.1245
60.799999	78.068	-142.6076
61.500000	78.058	-143.0032
62.200001	78.048	-143.3793
63.000000	78.035	-143.7997
64.000000	78.019	-144.3285
65.000000	78.005	-144.8591
66.000000	77.996	-145.3768
67.000000	77.988	-145.8735
68.000000	77.976	-146.3499
69.000000	77.959	-146.8167
70.000000	77.938	-147.2857
71.000000	77.920	-147.7584
72.000000	77.906	-148.2261
73.000000	77.894	-148.6730
74.000000	77.880	-149.0928
75.000000	77.863	-149.4973
76.199997	77.839	-149.9833
77.500000	77.809	-150.5183
78.800003	77.778	-151.0346
80.000000	77.750	-151.4706
81.199997	77.725	-151.8832
82.500000	77.703	-152.3311
83.800003	77.684	-152.7807
85.000000	77.661	-153.1962
86.199997	77.632	-153.6159
87.500000	77.596	-154.0597
88.500000	77.568	-154.3831
90.000000	77.525	-154.8571
91.199997	77.491	-155.2530
92.500000	77.458	-155.7051
93.800003	77.431	-156.1629
95.000000	77.406	-156.5705
96.199997	77.377	-156.9493
97.500000	77.340	-157.3194
98.800003	77.298	-157.6590
100.000000	77.258	-157.9641
101.500000	77.207	-158.3438
103.000000	77.152	-158.7064
104.400002	77.097	-159.0093
106.000000	77.030	-159.3047
107.500000	76.967	-159.5558
109.000000	76.904	-159.8250
110.599998	76.839	-160.1606
112.000000	76.784	-160.4772
113.800003	76.713	-160.8608
115.000000	76.664	-161.0877
117.199997	76.569	-161.4387
118.000000	76.534	-161.5400
120.599998	76.418	-161.7880
122.000000	76.353	-161.9024
124.099998	76.249	-162.0751
125.000000	76.203	-162.1518
126.500000	76.126	-162.2808
128.000000	76.049	-162.3954
131.500000	75.864	-162.5322
132.000000	75.836	-162.5393
134.000000	75.727	-162.5500
136.000000	75.625	-162.5280
138.000000	75.525	-162.4653
140.000000	75.422	-162.3787
143.000000	75.262	-162.2164
145.000000	75.156	-162.0494
147.500000	75.025	-161.7466
150.000000	74.893	-161.3728
152.500000	74.758	-160.9792
155.000000	74.625	-160.5867
157.500000	74.498	-160.1552
160.000000	74.376	-159.6579
162.500000	74.261	-159.1162
165.000000	74.151	-158.5324
167.500000	74.044	-157.8992
170.000000	73.940	-157.2373
172.500000	73.841	-156.5776
175.000000	73.743	-155.9448
177.500000	73.642	-155.3473
180.000000	73.539	-154.7661
182.500000	73.430	-154.1666
185.000000	73.310	-153.5354
187.500000	73.182	-152.8791
190.000000	73.055	-152.1896
192.500000	72.939	-151.4469
195.000000	72.839	-150.6390
197.500000	72.757	-149.7744
200.000000	72.691	-148.8910
203.000000	72.629	-147.8578
206.000000	72.585	-146.8476
209.000000	72.548	-145.8191
212.000000	72.507	-144.7588
214.000000	72.477	-144.0402
218.000000	72.409	-142.5935
220.000000	72.371	-141.8701
224.000000	72.293	-140.4317
227.000000	72.236	-139.3643
230.000000	72.185	-138.2863
233.000000	72.140	-137.1624
236.000000	72.100	-135.9848
240.000000	72.050	-134.3628
243.000000	72.015	-133.1243
247.000000	71.972	-131.4427
250.000000	71.949	-130.1697
254.000000	71.938	-128.4933
258.000000	71.948	-126.8548
262.000000	71.969	-125.2511
265.000000	71.988	-124.0788
269.000000	72.013	-122.5630
272.000000	72.032	-121.4538
276.000000	72.064	-119.9867
280.000000	72.105	-118.5124
285.000000	72.168	-116.6680
290.000000	72.242	-114.8556
295.000000	72.320	-113.0956
300.000000	72.398	-111.3875
304.000000	72.462	-110.0549
307.000000	72.512	-109.0735
311.000000	72.583	-107.7850
315.000000	72.656	-106.5128
320.000000	72.753	-104.9524
325.000000	72.853	-103.4528
330.000000	72.954	-102.0261
335.000000	73.055	-100.6524
340.000000	73.161	-99.3033
345.000000	73.271	-97.9589
350.000000	73.386	-96.6135
355.000000	73.507	-95.2909
360.000000	73.629	-94.0401
365.000000	73.749	-92.8806
370.000000	73.865	-91.7890
375.000000	73.974	-90.7391
382.000000	74.123	-89.3204
387.000000	74.230	-88.3538
395.000000	74.395	-86.8548
400.000000	74.494	-85.8852
406.000000	74.611	-84.6643
412.000000	74.721	-83.4096
418.000000	74.827	-82.1501
425.000000	74.955	-80.6982
431.000000	75.071	-79.5352
437.000000	75.192	-78.4882
444.000000	75.340	-77.3872
450.000000	75.471	-76.5388
455.000000	75.576	-75.8892
462.000000	75.711	-75.0279
468.000000	75.816	-74.3102
475.000000	75.930	-73.5118
482.000000	76.034	-72.7930
487.000000	76.103	-72.3389
494.000000	76.194	-71.7801
500.000000	76.268	-71.3524
508.000000	76.363	-70.8253
515.000000	76.436	-70.4154
522.000000	76.492	-70.0577
530.000000	76.538	-69.6728
538.000000	76.568	-69.2749
545.000000	76.584	-68.9125
552.000000	76.590	-68.5370
560.000000	76.585	-68.0723
570.000000	76.565	-67.4023
580.000000	76.539	-66.6488
590.000000	76.516	-65.8517
600.000000	76.488	-65.0648
608.000000	76.451	-64.4463
615.000000	76.411	-63.8834
622.000000	76.367	-63.2609
630.000000	76.319	-62.4330
640.000000	76.263	-61.2105
650.000000	76.212	-59.8398
660.000000	76.167	-58.3807
670.000000	76.128	-56.8578
680.000000	76.088	-55.3067
690.000000	76.036	-53.7428
700.000000	75.976	-52.1667
710.000000	75.918	-50.5845
720.000000	75.867	-48.9914
730.000000	75.818	-47.3751
740.000000	75.767	-45.7299
750.000000	75.715	-44.0586
762.000000	75.656	-42.0076
775.000000	75.599	-39.7255
788.000000	75.549	-37.3748
800.000000	75.503	-35.1196
812.000000	75.460	-32.7823
825.000000	75.424	-30.1907
838.000000	75.401	-27.5923
850.000000	75.379	-25.2287
862.000000	75.352	-22.9244
875.000000	75.319	-20.4921
885.000000	75.296	-18.6491
900.000000	75.273	-15.8668
912.000000	75.268	-13.5982
925.000000	75.270	-11.1494
938.000000	75.269	-8.7886
950.000000	75.267	-6.7160
962.000000	75.270	-4.7229
975.000000	75.288	-2.6077
988.000000	75.320	-0.5074
1000.000000	75.355	1.4087
1015.000000	75.393	3.7338
1030.000000	75.428	5.9739
1044.000000	75.463	8.0104
1060.000000	75.511	10.2928
1075.000000	75.557	12.3718
1090.000000	75.602	14.3730
1106.000000	75.647	16.4200
1120.000000	75.687	18.1256
1138.000000	75.741	20.1958
1150.000000	75.775	21.5167
1172.000000	75.838	23.8590
1180.000000	75.861	24.6902
1206.000000	75.942	27.3406
1220.000000	75.987	28.7429
1241.000000	76.060	30.7930
1250.000000	76.094	31.6355
1265.000000	76.156	32.9761
1280.000000	76.218	34.2506
1315.000000	76.328	37.1659
1320.000000	76.337	37.5951
1340.000000	76.353	39.3856
1360.000000	76.330	41.3078
1380.000000	76.273	43.3410
1400.000000	76.200	45.4295
1430.000000	76.105	48.5937
1450.000000	76.070	50.7217
1475.000000	76.063	53.4147
1500.000000	76.087	56.1701
1525.000000	76.126	58.9847
1550.000000	76.174	61.8466
1575.000000	76.237	64.7394
1600.000000	76.315	67.6169
1625.000000	76.398	70.4122
1650.000000	76.476	73.0938
1675.000000	76.556	75.6903
1700.000000	76.645	78.2344
1725.000000	76.744	80.6895
1750.000000	76.845	82.9923
1775.000000	76.937	85.1182
1800.000000	77.020	87.1064
1825.000000	77.105	89.0181
1850.000000	77.196	90.8771
1875.000000	77.286	92.6714
1900.000000	77.370	94.3963
1925.000000	77.452	96.0680
1950.000000	77.533	97.6961
1975.000000	77.610	99.2699
2000.000000	77.680	100.8035
2030.000000	77.760	102.6678
2060.000000	77.838	104.6359
2090.000000	77.912	106.6970
2120.000000	77.979	108.7286
2140.000000	78.020	110.0129
2180.000000	78.097	112.3709
2200.000000	78.134	113.4445
2240.000000	78.198	115.4129
2270.000000	78.240	116.8023
2300.000000	78.281	118.1801
2330.000000	78.321	119.5704
2360.000000	78.358	121.0080
2400.000000	78.409	123.0977
2430.000000	78.452	124.8039
2470.000000	78.506	127.0696
2500.000000	78.540	128.6316
2540.000000	78.582	130.5439
2580.000000	78.638	132.4043
2620.000000	78.706	134.1853
2650.000000	78.757	135.3470
2690.000000	78.819	136.5669
2720.000000	78.863	137.2608
2760.000000	78.923	137.9769
2800.000000	78.987	138.5096
2850.000000	79.070	138.9702
2900.000000	79.142	139.2833
2950.000000	79.193	139.5959
3000.000000	79.228	140.0341
3040.000000	79.251	140.4417
3070.000000	79.266	140.7327
3110.000000	79.280	141.0416
3150.000000	79.286	141.2026
3200.000000	79.282	141.1822
3250.000000	79.269	141.0163
3300.000000	79.246	140.8214
3350.000000	79.208	140.6939
3400.000000	79.155	140.7194
3450.000000	79.089	140.8654
3500.000000	79.006	140.9892
3550.000000	78.907	141.0148
3600.000000	78.800	140.9887
3650.000000	78.691	140.9859
3700.000000	78.584	141.0575
3750.000000	78.481	141.2650
3820.000000	78.347	141.9195
3870.000000	78.259	142.7134
3950.000000	78.127	144.5495
4000.000000	78.044	145.9827
4060.000000	77.937	147.8922
4120.000000	77.818	149.9306
4180.000000	77.689	152.0870
4250.000000	77.531	154.7695
4310.000000	77.394	157.1171
4370.000000	77.253	159.3831
4440.000000	77.090	162.0026
4500.000000	76.975	164.4849
4550.000000	76.912	166.8510
4620.000000	76.891	170.6160
4680.000000	76.953	174.2224
4750.000000	77.146	178.7992
4820.000000	77.472	-176.5536
4870.000000	77.769	-173.4972
4940.000000	78.238	-169.9518
5000.000000	78.649	-167.7650
5080.000000	79.151	-166.1297
5150.000000	79.505	-165.7827
5220.000000	79.751	-166.2168
5300.000000	79.889	-167.2349
5380.000000	79.895	-168.1120
5450.000000	79.855	-168.2691
5520.000000	79.861	-167.9230
5600.000000	79.964	-167.6949
5700.000000	80.065	-168.4656
5800.000000	79.973	-169.4115
5900.000000	79.747	-169.5757
6000.000000	79.484	-169.1785
6080.000000	79.284	-168.6694
6150.000000	79.124	-168.1250
6220.000000	78.981	-167.5275
6300.000000	78.838	-166.8420
6400.000000	78.694	-165.9687
6500.000000	78.602	-164.7834
6600.000000	78.575	-163.0161
6700.000000	78.614	-160.7807
6800.000000	78.726	-158.3897
6900.000000	78.916	-156.1481
7000.000000	79.194	-154.2224
7100.000000	79.573	-152.7189
7200.000000	80.058	-151.8422
7300.000000	80.658	-151.6879
7400.000000	81.379	-152.2089
7500.000000	82.212	-153.5531
7620.000000	83.305	-156.8010
7750.000000	84.467	-163.1796
7880.000000	85.393	-173.1219
8000.000000	85.857	174.8311
8120.000000	85.827	161.2750
8250.000000	85.212	146.9100
8380.000000	84.073	134.4055
8500.000000	82.701	125.0463
8620.000000	81.174	117.9430
8750.000000	79.498	112.7418
8850.000000	78.259	110.2934
9000.000000	76.535	108.5246
9120.000000	75.281	108.2250
9250.000000	74.038	108.6740
9380.000000	72.901	109.7042
9500.000000	71.933	111.0328
9620.000000	71.034	112.7357
9750.000000	70.132	115.1023
9880.000000	69.297	118.0698
10000.000000	68.578	121.4138
10150.000000	67.746	126.4806
10300.000000	66.985	132.2402
10440.000000	66.325	137.7122
10600.000000	65.625	143.6565
10750.000000	65.021	148.8280
10900.000000	64.468	153.7622
11060.000000	63.934	159.1021
11200.000000	63.512	164.0082
11380.000000	63.029	170.6432
11500.000000	62.747	175.2606
11720.000000	62.339	-175.8766
11800.000000	62.226	-172.5706
12060.000000	61.979	-161.8439
12200.000000	61.917	-156.2014
12410.000000	61.912	-148.4098
12500.000000	61.941	-145.5437
12650.000000	62.034	-141.5995
12800.000000	62.177	-138.6192
13150.000000	62.697	-133.0753
13200.000000	62.798	-132.2171
13400.000000	63.317	-128.5514
13600.000000	64.093	-124.9284
13800.000000	65.161	-122.0750
14000.000000	66.407	-121.2579
14300.000000	68.093	-126.8073
14500.000000	68.715	-135.1996
14750.000000	68.618	-147.7646
15000.000000	67.551	-157.9188
15250.000000	65.809	-162.9420
15500.000000	63.791	-163.6382
15750.000000	61.823	-162.2433
16000.000000	60.138	-159.4624
16250.000000	58.879	-154.9016
16500.000000	58.031	-148.6146
16750.000000	57.473	-141.1340
17000.000000	57.062	-133.2866
17250.000000	56.714	-125.8557
17500.000000	56.444	-119.5764
17750.000000	56.344	-115.0202
18000.000000	56.544	-111.8559
18250.000000	57.101	-109.2789
18500.000000	57.918	-106.9411
18750.000000	58.833	-105.3809
19000.000000	59.701	-105.5433
19250.000000	60.423	-107.7476
19500.000000	60.938	-111.4174
19750.000000	61.237	-115.3898
