* Measurement data measured by REW V5.20.13
* Source: Microphone (2- USB Audio Device), MICROPHONE (Master Volume), L, volume: 0.250. Timing signal peak level -30.5 dBFS, measurement signal peak level -30.7 dBFS
* Format: 256k Log Swept Sine, 1 sweep at -12.0 dBFS using an acoustic timing reference
* Dated: 04-May-2023 12:54:16
* REW Settings:
*  C-weighting compensation: Off
*  Target level: 75.0 dB
* Note: 
* Measurement: SoundPEATS Air3 L
* Smoothing: 1/12 octave
* Frequency Step: 1/48 octave
* Start Frequency: 20.000 Hz
*
* Freq(Hz)	SPL(dB)	Phase(degrees)
20.000000	51.977	150.4679
20.299999	52.059	152.4543
20.600000	52.073	154.0801
20.900000	52.032	155.3514
21.200001	51.951	156.2291
21.400000	51.882	156.5594
21.799999	51.727	156.5382
22.000000	51.651	156.1498
22.400000	51.522	154.5590
22.700001	51.457	152.6641
23.000000	51.427	150.2643
23.299999	51.439	147.5670
23.600000	51.507	144.8081
24.000000	51.719	141.3751
24.299999	51.988	139.1185
24.700001	52.488	136.4664
25.000000	52.921	134.6031
25.400000	53.491	132.1785
25.799999	53.964	129.9950
26.200001	54.310	128.4936
26.500000	54.507	128.0627
26.900000	54.740	128.4841
27.200001	54.930	129.3708
27.600000	55.227	130.8818
28.000000	55.548	132.2439
28.500000	55.907	133.3017
29.000000	56.157	133.7247
29.500000	56.306	133.8267
30.000000	56.403	133.7413
30.400000	56.471	133.4668
30.700001	56.520	133.0942
31.100000	56.583	132.3735
31.500000	56.645	131.4612
32.000000	56.732	130.2037
32.500000	56.849	128.9532
33.000000	57.010	127.7643
33.500000	57.212	126.6443
34.000000	57.439	125.6189
34.500000	57.678	124.7234
35.000000	57.917	123.9687
35.500000	58.145	123.3386
36.000000	58.355	122.8125
36.500000	58.544	122.3743
37.000000	58.711	122.0029
37.500000	58.858	121.6712
38.200001	59.041	121.2180
38.700001	59.163	120.8694
39.500000	59.356	120.2144
40.000000	59.481	119.7224
40.599998	59.639	119.0365
41.200001	59.797	118.2665
41.799999	59.951	117.4796
42.500000	60.127	116.6490
43.099998	60.280	116.0427
43.700001	60.441	115.4829
44.400002	60.630	114.8129
45.000000	60.784	114.2095
45.500000	60.903	113.7073
46.200001	61.060	113.0352
46.799999	61.190	112.4930
47.500000	61.339	111.8951
48.200001	61.486	111.3599
48.700001	61.592	111.0382
49.400002	61.743	110.6687
50.000000	61.874	110.3837
50.799999	62.039	109.9819
51.500000	62.169	109.6031
52.200001	62.288	109.2263
53.000000	62.419	108.8226
53.799999	62.555	108.4593
54.500000	62.684	108.1694
55.200001	62.826	107.8768
56.000000	62.998	107.5096
57.000000	63.212	107.0538
58.000000	63.421	106.7030
59.000000	63.629	106.4437
60.000000	63.832	106.1959
60.799999	63.986	105.9512
61.500000	64.112	105.6839
62.200001	64.228	105.3796
63.000000	64.354	105.0109
64.000000	64.510	104.5205
65.000000	64.669	103.9744
66.000000	64.826	103.3792
67.000000	64.976	102.7739
68.000000	65.121	102.1890
69.000000	65.260	101.6221
70.000000	65.397	101.0554
71.000000	65.535	100.4811
72.000000	65.676	99.8958
73.000000	65.820	99.2896
74.000000	65.964	98.6681
75.000000	66.104	98.0517
76.199997	66.267	97.3228
77.500000	66.438	96.5351
78.800003	66.601	95.7543
80.000000	66.748	95.0445
81.199997	66.895	94.3336
82.500000	67.052	93.5468
83.800003	67.209	92.7415
85.000000	67.350	91.9889
86.199997	67.489	91.2336
87.500000	67.636	90.4196
88.500000	67.747	89.8046
90.000000	67.907	88.9160
91.199997	68.032	88.2371
92.500000	68.165	87.5201
93.800003	68.293	86.8021
95.000000	68.407	86.1302
96.199997	68.516	85.4502
97.500000	68.628	84.7093
98.800003	68.736	83.9723
100.000000	68.834	83.3013
101.500000	68.955	82.4824
103.000000	69.077	81.6858
104.400002	69.188	80.9539
106.000000	69.310	80.1240
107.500000	69.419	79.3537
109.000000	69.522	78.5923
110.599998	69.628	77.7827
112.000000	69.718	77.0721
113.800003	69.829	76.1653
115.000000	69.900	75.5703
117.199997	70.024	74.5016
118.000000	70.067	74.1187
120.599998	70.199	72.8742
122.000000	70.265	72.1976
124.099998	70.358	71.1780
125.000000	70.397	70.7415
126.500000	70.459	70.0209
128.000000	70.519	69.3166
131.500000	70.650	67.7418
132.000000	70.667	67.5209
134.000000	70.735	66.6353
136.000000	70.796	65.7461
138.000000	70.849	64.8690
140.000000	70.895	64.0240
143.000000	70.955	62.8244
145.000000	70.990	62.0485
147.500000	71.028	61.0905
150.000000	71.062	60.1368
152.500000	71.093	59.1847
155.000000	71.117	58.2556
157.500000	71.131	57.3635
160.000000	71.135	56.5125
162.500000	71.136	55.7036
165.000000	71.137	54.9348
167.500000	71.133	54.2084
170.000000	71.122	53.5240
172.500000	71.105	52.8765
175.000000	71.080	52.2669
177.500000	71.046	51.7009
180.000000	71.002	51.1800
182.500000	70.944	50.6991
185.000000	70.872	50.2554
187.500000	70.786	49.8472
190.000000	70.692	49.4719
192.500000	70.600	49.1329
195.000000	70.516	48.8371
197.500000	70.445	48.5903
200.000000	70.385	48.3951
203.000000	70.327	48.2272
206.000000	70.280	48.1276
209.000000	70.235	48.0935
212.000000	70.185	48.1206
214.000000	70.147	48.1692
218.000000	70.057	48.3275
220.000000	70.009	48.4327
224.000000	69.913	48.6949
227.000000	69.847	48.9479
230.000000	69.788	49.2552
233.000000	69.734	49.6027
236.000000	69.686	49.9658
240.000000	69.626	50.4553
243.000000	69.585	50.8286
247.000000	69.534	51.3340
250.000000	69.499	51.7126
254.000000	69.463	52.2113
258.000000	69.441	52.7067
262.000000	69.429	53.1958
265.000000	69.426	53.5556
269.000000	69.429	54.0289
272.000000	69.437	54.3776
276.000000	69.454	54.8281
280.000000	69.478	55.2588
285.000000	69.511	55.7550
290.000000	69.544	56.1726
295.000000	69.576	56.4943
300.000000	69.603	56.7535
304.000000	69.623	56.9578
307.000000	69.637	57.1112
311.000000	69.654	57.2979
315.000000	69.669	57.4481
320.000000	69.685	57.5848
325.000000	69.697	57.6905
330.000000	69.706	57.7885
335.000000	69.711	57.8871
340.000000	69.714	57.9808
345.000000	69.712	58.0782
350.000000	69.703	58.2059
355.000000	69.685	58.3705
360.000000	69.660	58.5640
365.000000	69.631	58.7797
370.000000	69.598	59.0104
375.000000	69.558	59.2548
382.000000	69.493	59.6311
387.000000	69.442	59.9229
395.000000	69.358	60.4272
400.000000	69.302	60.7916
406.000000	69.233	61.3138
412.000000	69.159	61.9292
418.000000	69.087	62.6294
425.000000	69.011	63.5560
431.000000	68.954	64.4221
437.000000	68.898	65.3173
444.000000	68.832	66.3759
450.000000	68.777	67.2977
455.000000	68.735	68.0757
462.000000	68.687	69.1771
468.000000	68.657	70.1411
475.000000	68.636	71.3192
482.000000	68.631	72.5748
487.000000	68.635	73.5086
494.000000	68.651	74.8422
500.000000	68.675	75.9935
508.000000	68.721	77.5156
515.000000	68.770	78.8135
522.000000	68.822	80.0642
530.000000	68.884	81.4241
538.000000	68.948	82.7087
545.000000	69.009	83.7753
552.000000	69.074	84.7930
560.000000	69.153	85.9001
570.000000	69.260	87.2104
580.000000	69.371	88.4305
590.000000	69.483	89.5470
600.000000	69.597	90.5910
608.000000	69.689	91.3954
615.000000	69.770	92.0768
622.000000	69.851	92.7289
630.000000	69.940	93.4312
640.000000	70.047	94.2482
650.000000	70.149	95.0144
660.000000	70.247	95.7428
670.000000	70.341	96.4327
680.000000	70.430	97.0813
690.000000	70.510	97.6931
700.000000	70.580	98.2788
710.000000	70.642	98.8447
720.000000	70.700	99.3963
730.000000	70.754	99.9473
740.000000	70.806	100.5109
750.000000	70.855	101.0851
762.000000	70.904	101.7612
775.000000	70.944	102.4363
788.000000	70.975	103.0309
800.000000	70.994	103.5141
812.000000	71.002	103.9695
825.000000	71.001	104.4814
838.000000	70.994	105.0425
850.000000	70.984	105.6216
862.000000	70.968	106.2633
875.000000	70.946	107.0173
885.000000	70.925	107.6321
900.000000	70.889	108.6047
912.000000	70.856	109.4121
925.000000	70.817	110.2927
938.000000	70.775	111.1691
950.000000	70.734	111.9745
962.000000	70.689	112.7777
975.000000	70.640	113.6451
988.000000	70.590	114.5112
1000.000000	70.546	115.3231
1015.000000	70.493	116.3767
1030.000000	70.443	117.4752
1044.000000	70.399	118.5349
1060.000000	70.350	119.7787
1075.000000	70.308	120.9586
1090.000000	70.269	122.1270
1106.000000	70.230	123.3407
1120.000000	70.194	124.3584
1138.000000	70.147	125.5940
1150.000000	70.116	126.3915
1172.000000	70.062	127.8909
1180.000000	70.044	128.4632
1206.000000	69.998	130.4393
1220.000000	69.980	131.5693
1241.000000	69.959	133.3104
1250.000000	69.953	134.0665
1265.000000	69.946	135.3422
1280.000000	69.940	136.6378
1315.000000	69.892	139.6829
1320.000000	69.876	140.1165
1340.000000	69.777	141.8367
1360.000000	69.618	143.5240
1380.000000	69.409	145.1774
1400.000000	69.167	146.8035
1430.000000	68.795	149.2238
1450.000000	68.557	150.8602
1475.000000	68.272	152.9301
1500.000000	67.992	154.9696
1525.000000	67.702	156.9633
1550.000000	67.397	158.9999
1575.000000	67.081	161.2256
1600.000000	66.756	163.7081
1625.000000	66.422	166.4346
1650.000000	66.078	169.3750
1675.000000	65.731	172.4929
1700.000000	65.384	175.7779
1725.000000	65.036	179.2634
1750.000000	64.692	-176.9822
1775.000000	64.364	-172.8873
1800.000000	64.058	-168.4156
1825.000000	63.778	-163.5939
1850.000000	63.531	-158.4979
1875.000000	63.312	-153.2001
1900.000000	63.120	-147.7490
1925.000000	62.958	-142.1939
1950.000000	62.826	-136.5715
1975.000000	62.726	-130.8892
2000.000000	62.664	-125.1465
2030.000000	62.639	-118.2111
2060.000000	62.661	-111.3121
2090.000000	62.720	-104.5507
2120.000000	62.809	-98.0317
2140.000000	62.880	-93.8637
2180.000000	63.038	-85.9860
2200.000000	63.125	-82.2515
2240.000000	63.314	-75.1035
2270.000000	63.458	-69.9933
2300.000000	63.601	-65.1053
2330.000000	63.734	-60.4633
2360.000000	63.855	-56.0760
2400.000000	63.994	-50.5359
2430.000000	64.081	-46.5100
2470.000000	64.170	-41.1938
2500.000000	64.216	-37.2011
2540.000000	64.251	-31.8632
2580.000000	64.256	-26.5562
2620.000000	64.235	-21.3375
2650.000000	64.207	-17.5276
2690.000000	64.149	-12.6940
2720.000000	64.089	-9.3095
2760.000000	63.987	-5.1182
2800.000000	63.863	-1.2174
2850.000000	63.684	3.4467
2900.000000	63.490	8.0585
2950.000000	63.282	12.6597
3000.000000	63.059	17.2226
3040.000000	62.867	20.8944
3070.000000	62.716	23.7372
3110.000000	62.511	27.7609
3150.000000	62.306	32.1460
3200.000000	62.051	38.1719
3250.000000	61.795	44.7274
3300.000000	61.537	51.6846
3350.000000	61.272	58.9561
3400.000000	61.002	66.5496
3450.000000	60.737	74.4471
3500.000000	60.477	82.5041
3550.000000	60.218	90.6135
3600.000000	59.977	98.9058
3650.000000	59.781	107.6392
3700.000000	59.645	116.8991
3750.000000	59.576	126.5308
3820.000000	59.597	140.1284
3870.000000	59.699	149.6245
3950.000000	60.028	164.2090
4000.000000	60.331	172.9084
4060.000000	60.773	-177.1710
4120.000000	61.272	-167.9238
4180.000000	61.799	-159.3994
4250.000000	62.418	-150.3314
4310.000000	62.935	-143.2288
4370.000000	63.435	-136.6698
4440.000000	63.990	-129.6184
4500.000000	64.435	-124.0227
4550.000000	64.780	-119.6440
4620.000000	65.223	-113.8892
4680.000000	65.561	-109.2123
4750.000000	65.912	-103.9006
4820.000000	66.218	-98.6307
4870.000000	66.409	-94.8381
4940.000000	66.652	-89.3521
5000.000000	66.847	-84.3638
5080.000000	67.101	-77.3090
5150.000000	67.316	-70.9792
5220.000000	67.526	-64.6494
5300.000000	67.769	-57.3540
5380.000000	68.018	-49.9779
5450.000000	68.238	-43.5234
5520.000000	68.466	-37.0503
5600.000000	68.746	-29.5717
5700.000000	69.116	-20.1207
5800.000000	69.498	-10.5631
5900.000000	69.891	-0.9298
6000.000000	70.272	8.3737
6080.000000	70.541	15.2079
6150.000000	70.745	20.6042
6220.000000	70.922	25.4353
6300.000000	71.094	30.3394
6400.000000	71.268	35.7239
6500.000000	71.396	40.5413
6600.000000	71.494	45.2216
6700.000000	71.580	50.0503
6800.000000	71.645	54.9517
6900.000000	71.659	59.7893
7000.000000	71.611	64.6372
7100.000000	71.502	69.7043
7200.000000	71.333	75.0857
7300.000000	71.101	80.8290
7400.000000	70.820	87.1523
7500.000000	70.519	94.2714
7620.000000	70.169	103.7336
7750.000000	69.833	114.4225
7880.000000	69.568	124.7568
8000.000000	69.400	133.7386
8120.000000	69.302	142.3859
8250.000000	69.233	151.3555
8380.000000	69.138	159.5604
8500.000000	68.976	166.4370
8620.000000	68.699	173.0063
8750.000000	68.241	-179.6908
8850.000000	67.778	-173.6523
9000.000000	66.944	-163.5275
9120.000000	66.193	-154.3257
9250.000000	65.343	-143.2759
9380.000000	64.494	-131.4070
9500.000000	63.741	-120.1433
9620.000000	63.037	-108.9811
9750.000000	62.339	-97.3029
9880.000000	61.713	-86.0341
10000.000000	61.193	-75.8196
10150.000000	60.600	-63.2167
10300.000000	60.050	-50.8644
10440.000000	59.558	-39.5153
10600.000000	59.016	-26.5457
10750.000000	58.532	-14.4163
10900.000000	58.078	-2.7322
11060.000000	57.632	8.7446
11200.000000	57.282	17.9915
11380.000000	56.903	29.4049
11500.000000	56.699	37.0474
11720.000000	56.433	51.4771
11800.000000	56.374	56.8077
12060.000000	56.308	73.6455
12200.000000	56.338	82.0663
12410.000000	56.456	93.6915
12500.000000	56.533	98.3353
12650.000000	56.695	105.7024
12800.000000	56.887	112.5745
13150.000000	57.265	125.7527
13200.000000	57.297	127.3032
13400.000000	57.376	132.9640
13600.000000	57.424	137.9590
13800.000000	57.459	142.2068
14000.000000	57.427	145.5474
14300.000000	57.130	149.6965
14500.000000	56.748	152.9255
14750.000000	56.097	158.1416
15000.000000	55.308	164.6678
15250.000000	54.434	171.7515
15500.000000	53.483	177.7953
15750.000000	52.452	-178.4851
16000.000000	51.370	-177.6410
16250.000000	50.249	-179.6249
16500.000000	49.035	176.4408
16750.000000	47.657	171.8654
17000.000000	46.106	167.2094
17250.000000	44.455	160.4816
17500.000000	42.838	144.1815
17750.000000	41.417	103.4872
18000.000000	40.389	25.9688
18250.000000	39.932	-76.0203
18500.000000	40.021	179.1930
18750.000000	40.442	55.8339
19000.000000	40.963	-119.8016
19250.000000	41.431	18.7657
19500.000000	41.768	152.3245
19750.000000	41.966	-49.4970
