* Measurement data measured by REW V5.20.13
* Source: Frequency Response Averaged data
* Format: Averaged data produced from the rms magnitudes of Soundpeats H1, Soundpeats H1, RMS Average 1, Soundpeats H1, Soundpeats H1
* Dated: 31-Mar-2023 12:09:44
* REW Settings:
*  C-weighting compensation: Off
*  Target level: 75.0 dB
* Note: 
* Measurement: SoundPEATS H1 L
* Smoothing: 1/12 octave
* Frequency Step: 1/48 octave
* Start Frequency: 20.300 Hz
*
* Freq(Hz)	SPL(dB)
20.299999	73.334
20.600000	73.350
20.900000	73.395
21.200001	73.457
21.400000	73.500
21.799999	73.588
22.000000	73.633
22.400000	73.728
22.700001	73.803
23.000000	73.877
23.299999	73.949
23.600000	74.015
24.000000	74.093
24.299999	74.142
24.700001	74.198
25.000000	74.236
25.400000	74.283
25.799999	74.330
26.200001	74.379
26.500000	74.417
26.900000	74.470
27.200001	74.510
27.600000	74.563
28.000000	74.613
28.500000	74.671
29.000000	74.723
29.500000	74.770
30.000000	74.816
30.400000	74.852
30.700001	74.880
31.100000	74.916
31.500000	74.952
32.000000	74.996
32.500000	75.038
33.000000	75.078
33.500000	75.117
34.000000	75.155
34.500000	75.194
35.000000	75.233
35.500000	75.271
36.000000	75.309
36.500000	75.347
37.000000	75.386
37.500000	75.425
38.200001	75.481
38.700001	75.520
39.500000	75.580
40.000000	75.617
40.599998	75.662
41.200001	75.709
41.799999	75.758
42.500000	75.817
43.099998	75.866
43.700001	75.913
44.400002	75.965
45.000000	76.003
45.500000	76.031
46.200001	76.063
46.799999	76.083
47.500000	76.097
48.200001	76.101
48.700001	76.097
49.400002	76.077
50.000000	76.046
50.799999	75.979
51.500000	75.901
52.200001	75.810
53.000000	75.698
53.799999	75.579
54.500000	75.473
55.200001	75.363
56.000000	75.234
57.000000	75.069
58.000000	74.904
59.000000	74.739
60.000000	74.576
60.799999	74.448
61.500000	74.340
62.200001	74.233
63.000000	74.113
64.000000	73.965
65.000000	73.818
66.000000	73.672
67.000000	73.528
68.000000	73.386
69.000000	73.246
70.000000	73.109
71.000000	72.977
72.000000	72.847
73.000000	72.721
74.000000	72.597
75.000000	72.476
76.199997	72.335
77.500000	72.187
78.800003	72.040
80.000000	71.905
81.199997	71.771
82.500000	71.627
83.800003	71.484
85.000000	71.351
86.199997	71.219
87.500000	71.078
88.500000	70.971
90.000000	70.812
91.199997	70.685
92.500000	70.547
93.800003	70.408
95.000000	70.279
96.199997	70.149
97.500000	70.009
98.800003	69.869
100.000000	69.742
101.500000	69.586
103.000000	69.432
104.400002	69.288
106.000000	69.120
107.500000	68.961
109.000000	68.801
110.599998	68.632
112.000000	68.485
113.800003	68.300
115.000000	68.177
117.199997	67.953
118.000000	67.873
120.599998	67.615
122.000000	67.476
124.099998	67.270
125.000000	67.183
126.500000	67.037
128.000000	66.893
131.500000	66.563
132.000000	66.517
134.000000	66.335
136.000000	66.157
138.000000	65.980
140.000000	65.804
143.000000	65.547
145.000000	65.381
147.500000	65.182
150.000000	64.993
152.500000	64.814
155.000000	64.641
157.500000	64.475
160.000000	64.315
162.500000	64.166
165.000000	64.029
167.500000	63.905
170.000000	63.791
172.500000	63.686
175.000000	63.591
177.500000	63.501
180.000000	63.410
182.500000	63.317
185.000000	63.220
187.500000	63.122
190.000000	63.025
192.500000	62.936
195.000000	62.861
197.500000	62.802
200.000000	62.763
203.000000	62.739
206.000000	62.734
209.000000	62.737
212.000000	62.741
214.000000	62.740
218.000000	62.729
220.000000	62.719
224.000000	62.694
227.000000	62.672
230.000000	62.649
233.000000	62.626
236.000000	62.606
240.000000	62.581
243.000000	62.564
247.000000	62.542
250.000000	62.526
254.000000	62.505
258.000000	62.484
262.000000	62.463
265.000000	62.446
269.000000	62.423
272.000000	62.404
276.000000	62.379
280.000000	62.354
285.000000	62.323
290.000000	62.291
295.000000	62.259
300.000000	62.227
304.000000	62.198
307.000000	62.176
311.000000	62.144
315.000000	62.110
320.000000	62.067
325.000000	62.025
330.000000	61.985
335.000000	61.947
340.000000	61.912
345.000000	61.875
350.000000	61.835
355.000000	61.791
360.000000	61.747
365.000000	61.705
370.000000	61.666
375.000000	61.627
382.000000	61.572
387.000000	61.532
395.000000	61.468
400.000000	61.428
406.000000	61.381
412.000000	61.337
418.000000	61.296
425.000000	61.248
431.000000	61.208
437.000000	61.167
444.000000	61.118
450.000000	61.078
455.000000	61.046
462.000000	61.004
468.000000	60.969
475.000000	60.930
482.000000	60.891
487.000000	60.863
494.000000	60.823
500.000000	60.788
508.000000	60.745
515.000000	60.709
522.000000	60.671
530.000000	60.626
538.000000	60.582
545.000000	60.548
552.000000	60.518
560.000000	60.490
570.000000	60.458
580.000000	60.426
590.000000	60.393
600.000000	60.363
608.000000	60.339
615.000000	60.318
622.000000	60.296
630.000000	60.274
640.000000	60.252
650.000000	60.236
660.000000	60.225
670.000000	60.213
680.000000	60.194
690.000000	60.165
700.000000	60.131
710.000000	60.103
720.000000	60.093
730.000000	60.101
740.000000	60.117
750.000000	60.137
762.000000	60.166
775.000000	60.205
788.000000	60.245
800.000000	60.268
812.000000	60.269
825.000000	60.246
838.000000	60.217
850.000000	60.206
862.000000	60.223
875.000000	60.270
885.000000	60.319
900.000000	60.402
912.000000	60.472
925.000000	60.553
938.000000	60.638
950.000000	60.722
962.000000	60.807
975.000000	60.902
988.000000	60.998
1000.000000	61.088
1015.000000	61.202
1030.000000	61.320
1044.000000	61.432
1060.000000	61.564
1075.000000	61.690
1090.000000	61.817
1106.000000	61.951
1120.000000	62.066
1138.000000	62.212
1150.000000	62.310
1172.000000	62.492
1180.000000	62.561
1206.000000	62.792
1220.000000	62.921
1241.000000	63.121
1250.000000	63.209
1265.000000	63.362
1280.000000	63.517
1315.000000	63.852
1320.000000	63.892
1340.000000	64.026
1360.000000	64.115
1380.000000	64.171
1400.000000	64.215
1430.000000	64.298
1450.000000	64.377
1475.000000	64.502
1500.000000	64.654
1525.000000	64.823
1550.000000	64.997
1575.000000	65.170
1600.000000	65.343
1625.000000	65.514
1650.000000	65.682
1675.000000	65.846
1700.000000	66.006
1725.000000	66.163
1750.000000	66.317
1775.000000	66.469
1800.000000	66.619
1825.000000	66.769
1850.000000	66.920
1875.000000	67.072
1900.000000	67.227
1925.000000	67.389
1950.000000	67.562
1975.000000	67.750
2000.000000	67.958
2030.000000	68.240
2060.000000	68.570
2090.000000	68.946
2120.000000	69.339
2140.000000	69.585
2180.000000	69.952
2200.000000	70.046
2240.000000	70.055
2270.000000	69.961
2300.000000	69.843
2330.000000	69.747
2360.000000	69.690
2400.000000	69.674
2430.000000	69.697
2470.000000	69.757
2500.000000	69.815
2540.000000	69.895
2580.000000	69.971
2620.000000	70.032
2650.000000	70.063
2690.000000	70.077
2720.000000	70.064
2760.000000	70.009
2800.000000	69.904
2850.000000	69.679
2900.000000	69.321
2950.000000	68.800
3000.000000	68.088
3040.000000	67.380
3070.000000	66.783
3110.000000	65.952
3150.000000	65.186
3200.000000	64.522
3250.000000	64.287
3300.000000	64.341
3350.000000	64.456
3400.000000	64.483
3450.000000	64.375
3500.000000	64.134
3550.000000	63.781
3600.000000	63.343
3650.000000	62.841
3700.000000	62.288
3750.000000	61.688
3820.000000	60.773
3870.000000	60.061
3950.000000	58.807
4000.000000	57.960
4060.000000	56.937
4120.000000	56.059
4180.000000	55.593
4250.000000	55.848
4310.000000	56.640
4370.000000	57.639
4440.000000	58.741
4500.000000	59.508
4550.000000	59.999
4620.000000	60.478
4680.000000	60.724
4750.000000	60.862
4820.000000	60.886
4870.000000	60.853
4940.000000	60.760
5000.000000	60.655
5080.000000	60.502
5150.000000	60.366
5220.000000	60.235
5300.000000	60.098
5380.000000	59.974
5450.000000	59.877
5520.000000	59.793
5600.000000	59.720
5700.000000	59.660
5800.000000	59.640
5900.000000	59.667
6000.000000	59.736
6080.000000	59.815
6150.000000	59.897
6220.000000	59.990
6300.000000	60.109
6400.000000	60.280
6500.000000	60.481
6600.000000	60.714
6700.000000	60.980
6800.000000	61.280
6900.000000	61.615
7000.000000	61.983
7100.000000	62.393
7200.000000	62.857
7300.000000	63.390
7400.000000	63.994
7500.000000	64.663
7620.000000	65.533
7750.000000	66.512
7880.000000	67.456
8000.000000	68.231
8120.000000	68.847
8250.000000	69.257
8380.000000	69.321
8500.000000	69.028
8620.000000	68.391
8750.000000	67.369
8850.000000	66.431
9000.000000	64.991
9120.000000	63.987
9250.000000	63.144
9380.000000	62.523
9500.000000	62.072
9620.000000	61.678
9750.000000	61.281
9880.000000	60.900
10000.000000	60.562
10150.000000	60.159
10300.000000	59.775
10440.000000	59.426
10600.000000	59.035
10750.000000	58.674
10900.000000	58.317
11060.000000	57.934
11200.000000	57.587
11380.000000	57.108
11500.000000	56.765
11720.000000	56.094
11800.000000	55.839
12060.000000	54.964
12200.000000	54.460
12410.000000	53.665
12500.000000	53.312
12650.000000	52.710
12800.000000	52.087
13150.000000	50.510
13200.000000	50.269
13400.000000	49.281
13600.000000	48.307
13800.000000	47.429
14000.000000	46.713
14300.000000	45.979
14500.000000	45.675
14750.000000	45.444
15000.000000	45.366
15250.000000	45.418
15500.000000	45.550
15750.000000	45.718
16000.000000	45.853
16250.000000	45.818
16500.000000	45.444
16750.000000	44.632
17000.000000	43.414
17250.000000	41.918
17500.000000	40.313
17750.000000	38.766
18000.000000	37.439
18250.000000	36.471
18500.000000	35.940
18750.000000	35.821
19000.000000	36.017
19250.000000	36.392
19500.000000	36.811
19750.000000	37.160
