* Measurement data measured by REW V5.31.1
* Source: Microphone (4- USB Audio Device), MICROPHONE (Master Volume), R, volume: 0.250
* Format: 256k Log Swept Sine, 1 sweep at -12.0 dBFS with no timing reference
* Dated: 17-Jun-2024 13:07:18
* REW Settings:
*  C-weighting compensation: Off
*  Target level: 75.0 dB
* Note: 
* Measurement: SoundPEATS Space R
* Smoothing: 1/12 octave
* Frequency Step: 1/48 octave
* Start Frequency: 20.300 Hz
*
* Freq(Hz)	SPL(dB)	Phase(degrees)
20.299999	76.624	92.6959
20.600000	76.819	89.9531
20.900000	76.929	86.4460
21.200001	76.876	83.0013
21.400000	76.763	81.1049
21.799999	76.502	78.8649
22.000000	76.443	78.4827
22.400000	76.619	78.1566
22.700001	76.969	77.1758
23.000000	77.360	75.0039
23.299999	77.657	71.8104
23.600000	77.790	68.1748
24.000000	77.725	63.9002
24.299999	77.602	61.8889
24.700001	77.589	61.0755
25.000000	77.818	61.2054
25.400000	78.387	60.7667
25.799999	78.994	58.6114
26.200001	79.379	54.9117
26.500000	79.452	51.6260
26.900000	79.271	47.2802
27.200001	78.985	44.4335
27.600000	78.542	41.5305
28.000000	78.207	39.6812
28.500000	78.140	38.3701
29.000000	78.451	37.4052
29.500000	78.930	36.2566
30.000000	79.360	34.6470
30.400000	79.572	32.8781
30.700001	79.631	31.2099
31.100000	79.575	28.5081
31.500000	79.386	25.3209
32.000000	79.039	20.9601
32.500000	78.684	16.7799
33.000000	78.432	13.4541
33.500000	78.333	11.2904
34.000000	78.353	10.0692
34.500000	78.406	9.3238
35.000000	78.420	8.7084
35.500000	78.372	8.0939
36.000000	78.283	7.4359
36.500000	78.181	6.6662
37.000000	78.070	5.7262
37.500000	77.941	4.6427
38.200001	77.742	3.0513
38.700001	77.624	1.9127
39.500000	77.544	0.0029
40.000000	77.548	-1.2377
40.599998	77.562	-2.6587
41.200001	77.543	-3.9094
41.799999	77.481	-4.9750
42.500000	77.383	-6.0861
43.099998	77.310	-7.0617
43.700001	77.236	-8.0646
44.400002	77.115	-9.0063
45.000000	76.991	-9.4549
45.500000	76.898	-9.7161
46.200001	76.796	-10.3465
46.799999	76.712	-11.2499
47.500000	76.608	-12.4076
48.200001	76.522	-13.3339
48.700001	76.478	-13.8238
49.400002	76.437	-14.3531
50.000000	76.416	-14.7534
50.799999	76.412	-15.3787
51.500000	76.411	-16.0584
52.200001	76.391	-16.7289
53.000000	76.343	-17.2968
53.799999	76.293	-17.6722
54.500000	76.265	-18.0282
55.200001	76.248	-18.5639
56.000000	76.218	-19.3170
57.000000	76.168	-20.0409
58.000000	76.158	-20.4866
59.000000	76.180	-21.1320
60.000000	76.179	-21.9536
60.799999	76.171	-22.4898
61.500000	76.179	-22.8566
62.200001	76.207	-23.2424
63.000000	76.248	-23.8109
64.000000	76.274	-24.6643
65.000000	76.264	-25.5008
66.000000	76.239	-26.2640
67.000000	76.223	-26.9534
68.000000	76.226	-27.5834
69.000000	76.238	-28.2652
70.000000	76.249	-29.1055
71.000000	76.256	-30.1305
72.000000	76.257	-31.2396
73.000000	76.255	-32.2812
74.000000	76.260	-33.2272
75.000000	76.271	-34.1226
76.199997	76.279	-35.1489
77.500000	76.271	-36.2313
78.800003	76.257	-37.3588
80.000000	76.248	-38.4879
81.199997	76.240	-39.6880
82.500000	76.234	-41.0449
83.800003	76.233	-42.4056
85.000000	76.228	-43.6460
86.199997	76.209	-44.8913
87.500000	76.173	-46.2185
88.500000	76.140	-47.1864
90.000000	76.086	-48.5444
91.199997	76.037	-49.5588
92.500000	75.980	-50.5354
93.800003	75.918	-51.3818
95.000000	75.859	-52.1389
96.199997	75.800	-52.9682
97.500000	75.735	-53.9514
98.800003	75.671	-54.9777
100.000000	75.612	-55.9537
101.500000	75.541	-57.2002
103.000000	75.467	-58.4247
104.400002	75.394	-59.5243
106.000000	75.309	-60.7550
107.500000	75.229	-61.8996
109.000000	75.150	-63.0165
110.599998	75.067	-64.1523
112.000000	74.986	-65.0693
113.800003	74.864	-66.1730
115.000000	74.777	-66.9514
117.199997	74.624	-68.4649
118.000000	74.573	-68.9734
120.599998	74.417	-70.4428
122.000000	74.321	-71.2240
124.099998	74.163	-72.3169
125.000000	74.098	-72.7500
126.500000	73.999	-73.4870
128.000000	73.908	-74.2775
131.500000	73.660	-76.0107
132.000000	73.618	-76.2159
134.000000	73.445	-76.9771
136.000000	73.288	-77.7164
138.000000	73.157	-78.4486
140.000000	73.034	-79.1850
143.000000	72.854	-80.4185
145.000000	72.740	-81.2648
147.500000	72.606	-82.2230
150.000000	72.476	-82.9713
152.500000	72.344	-83.4908
155.000000	72.222	-84.0083
157.500000	72.115	-84.6430
160.000000	72.010	-85.2247
162.500000	71.895	-85.6445
165.000000	71.777	-86.0279
167.500000	71.653	-86.4716
170.000000	71.514	-87.0156
172.500000	71.365	-87.6772
175.000000	71.229	-88.4251
177.500000	71.121	-89.2528
180.000000	71.025	-90.1157
182.500000	70.924	-90.9028
185.000000	70.808	-91.5298
187.500000	70.682	-92.0397
190.000000	70.548	-92.5858
192.500000	70.417	-93.1957
195.000000	70.299	-93.8111
197.500000	70.191	-94.3604
200.000000	70.081	-94.7599
203.000000	69.939	-95.0408
206.000000	69.788	-95.2549
209.000000	69.646	-95.4221
212.000000	69.534	-95.4723
214.000000	69.479	-95.4862
218.000000	69.386	-95.6919
220.000000	69.338	-95.9089
224.000000	69.220	-96.4208
227.000000	69.120	-96.7914
230.000000	69.025	-97.1120
233.000000	68.944	-97.3802
236.000000	68.873	-97.6396
240.000000	68.774	-98.0313
243.000000	68.688	-98.3941
247.000000	68.553	-98.9367
250.000000	68.440	-99.2171
254.000000	68.276	-99.1800
258.000000	68.116	-98.6407
262.000000	67.989	-97.8150
265.000000	67.916	-97.2034
269.000000	67.842	-96.5175
272.000000	67.809	-96.0882
276.000000	67.799	-95.6437
280.000000	67.818	-95.3589
285.000000	67.861	-95.1282
290.000000	67.896	-94.9058
295.000000	67.921	-94.6863
300.000000	67.937	-94.4376
304.000000	67.946	-94.2109
307.000000	67.953	-94.0682
311.000000	67.967	-93.9826
315.000000	67.985	-94.0484
320.000000	68.007	-94.2604
325.000000	68.031	-94.5141
330.000000	68.060	-94.9255
335.000000	68.089	-95.4929
340.000000	68.116	-96.0675
345.000000	68.145	-96.5341
350.000000	68.178	-96.8720
355.000000	68.211	-97.1569
360.000000	68.238	-97.4233
365.000000	68.259	-97.6605
370.000000	68.279	-97.9149
375.000000	68.300	-98.2172
382.000000	68.325	-98.7613
387.000000	68.343	-99.2810
395.000000	68.389	-100.2522
400.000000	68.419	-100.7752
406.000000	68.444	-101.2244
412.000000	68.461	-101.5116
418.000000	68.474	-101.7165
425.000000	68.481	-101.9290
431.000000	68.492	-102.1725
437.000000	68.507	-102.4350
444.000000	68.529	-102.6514
450.000000	68.557	-102.8094
455.000000	68.584	-103.0024
462.000000	68.615	-103.3502
468.000000	68.639	-103.6088
475.000000	68.671	-103.7982
482.000000	68.711	-103.9282
487.000000	68.742	-104.0288
494.000000	68.784	-104.2478
500.000000	68.826	-104.5575
508.000000	68.903	-105.0793
515.000000	68.990	-105.5730
522.000000	69.082	-106.0914
530.000000	69.177	-106.6967
538.000000	69.259	-107.3061
545.000000	69.329	-107.8541
552.000000	69.400	-108.4450
560.000000	69.478	-109.1844
570.000000	69.562	-110.2544
580.000000	69.639	-111.5057
590.000000	69.723	-112.8159
600.000000	69.819	-114.0714
608.000000	69.896	-115.0020
615.000000	69.961	-115.7866
622.000000	70.023	-116.5946
630.000000	70.082	-117.5727
640.000000	70.128	-118.8652
650.000000	70.146	-120.1284
660.000000	70.155	-121.2269
670.000000	70.157	-122.1341
680.000000	70.154	-122.9500
690.000000	70.154	-123.8011
700.000000	70.153	-124.7399
710.000000	70.155	-125.7388
720.000000	70.166	-126.7364
730.000000	70.187	-127.7069
740.000000	70.221	-128.5990
750.000000	70.264	-129.3695
762.000000	70.320	-130.1881
775.000000	70.389	-131.0753
788.000000	70.469	-131.9974
800.000000	70.538	-132.8986
812.000000	70.593	-133.8419
825.000000	70.633	-134.9288
838.000000	70.665	-136.0832
850.000000	70.701	-137.2121
862.000000	70.743	-138.4077
875.000000	70.788	-139.7164
885.000000	70.819	-140.6467
900.000000	70.860	-141.8185
912.000000	70.895	-142.5708
925.000000	70.939	-143.3080
938.000000	70.985	-144.0948
950.000000	71.025	-144.9132
962.000000	71.061	-145.7962
975.000000	71.099	-146.7621
988.000000	71.128	-147.6453
1000.000000	71.147	-148.3490
1015.000000	71.171	-149.0968
1030.000000	71.203	-149.7274
1044.000000	71.244	-150.2789
1060.000000	71.298	-150.9675
1075.000000	71.340	-151.6794
1090.000000	71.369	-152.4579
1106.000000	71.402	-153.4038
1120.000000	71.443	-154.2781
1138.000000	71.505	-155.3329
1150.000000	71.547	-155.9909
1172.000000	71.617	-157.1934
1180.000000	71.637	-157.6521
1206.000000	71.688	-159.2671
1220.000000	71.708	-160.2108
1241.000000	71.725	-161.6348
1250.000000	71.729	-162.2005
1265.000000	71.733	-163.0394
1280.000000	71.743	-163.7513
1315.000000	71.814	-164.9999
1320.000000	71.829	-165.1308
1340.000000	71.896	-165.5491
1360.000000	71.971	-165.8902
1380.000000	72.044	-166.2730
1400.000000	72.107	-166.7110
1430.000000	72.169	-167.3300
1450.000000	72.203	-167.6984
1475.000000	72.252	-168.0665
1500.000000	72.307	-168.2419
1525.000000	72.357	-168.1682
1550.000000	72.404	-168.0015
1575.000000	72.461	-167.8740
1600.000000	72.531	-167.8247
1625.000000	72.606	-167.7704
1650.000000	72.681	-167.6134
1675.000000	72.759	-167.4590
1700.000000	72.837	-167.3722
1725.000000	72.921	-167.2617
1750.000000	73.039	-166.9289
1775.000000	73.256	-166.2341
1800.000000	73.629	-165.4285
1825.000000	74.128	-165.0577
1850.000000	74.655	-165.3794
1875.000000	75.159	-166.2381
1900.000000	75.653	-167.3769
1925.000000	76.163	-168.6782
1950.000000	76.688	-170.1919
1975.000000	77.213	-172.0168
2000.000000	77.731	-174.1715
2030.000000	78.335	-177.1621
2060.000000	78.897	179.4291
2090.000000	79.395	175.6697
2120.000000	79.825	171.6968
2140.000000	80.077	168.9839
2180.000000	80.512	163.4782
2200.000000	80.699	160.7613
2240.000000	81.023	155.6594
2270.000000	81.226	152.1588
2300.000000	81.402	148.8575
2330.000000	81.556	145.8166
2360.000000	81.697	143.1329
2400.000000	81.880	139.8882
2430.000000	82.010	137.4744
2470.000000	82.161	134.2147
2500.000000	82.259	131.8451
2540.000000	82.397	128.8942
2580.000000	82.552	126.0936
2620.000000	82.695	123.3544
2650.000000	82.773	121.2993
2690.000000	82.820	118.5027
2720.000000	82.809	116.3997
2760.000000	82.730	113.6825
2800.000000	82.574	111.0734
2850.000000	82.274	107.9343
2900.000000	81.876	105.0492
2950.000000	81.400	102.6088
3000.000000	80.851	100.6363
3040.000000	80.371	99.3968
3070.000000	79.997	98.6529
3110.000000	79.484	97.8923
3150.000000	78.952	97.4048
3200.000000	78.266	97.2421
3250.000000	77.575	97.6808
3300.000000	76.903	98.7061
3350.000000	76.250	100.1823
3400.000000	75.612	102.0214
3450.000000	74.990	104.1774
3500.000000	74.380	106.5427
3550.000000	73.781	109.0046
3600.000000	73.196	111.5100
3650.000000	72.626	114.1026
3700.000000	72.073	116.9849
3750.000000	71.555	120.4733
3820.000000	70.955	126.6087
3870.000000	70.641	131.6125
3950.000000	70.307	140.2020
4000.000000	70.197	146.1974
4060.000000	70.202	154.3111
4120.000000	70.410	162.9242
4180.000000	70.826	171.0064
4250.000000	71.475	179.2015
4310.000000	72.113	-174.5421
4370.000000	72.814	-169.0305
4440.000000	73.666	-163.8522
4500.000000	74.384	-160.5172
4550.000000	74.951	-158.4546
4620.000000	75.671	-156.5802
4680.000000	76.204	-155.8140
4750.000000	76.714	-155.6590
4820.000000	77.096	-156.0886
4870.000000	77.286	-156.7544
4940.000000	77.433	-158.2151
5000.000000	77.468	-159.8138
5080.000000	77.422	-161.9076
5150.000000	77.318	-163.2298
5220.000000	77.163	-163.8748
5300.000000	76.914	-163.8123
5380.000000	76.552	-163.1096
5450.000000	76.108	-162.0443
5520.000000	75.548	-160.2380
5600.000000	74.865	-156.6588
5700.000000	74.217	-149.9574
5800.000000	73.969	-142.6761
5900.000000	74.045	-136.6232
6000.000000	74.292	-132.3192
6080.000000	74.540	-130.0573
6150.000000	74.776	-128.6528
6220.000000	75.046	-127.5108
6300.000000	75.424	-126.3885
6400.000000	76.006	-125.4533
6500.000000	76.647	-125.3891
6600.000000	77.248	-126.5433
6700.000000	77.727	-129.1047
6800.000000	78.026	-132.9138
6900.000000	78.083	-137.6893
7000.000000	77.848	-143.0934
7100.000000	77.334	-148.5308
7200.000000	76.611	-153.6423
7300.000000	75.750	-158.8837
7400.000000	74.774	-165.2745
7500.000000	73.673	-173.4474
7620.000000	72.240	175.1472
7750.000000	70.759	162.7205
7880.000000	69.633	151.7502
8000.000000	69.091	143.3201
8120.000000	69.082	135.8642
8250.000000	69.603	127.1332
8380.000000	70.455	115.7913
8500.000000	71.250	102.2697
8620.000000	71.778	86.4074
8750.000000	71.825	68.3017
8850.000000	71.426	54.9649
9000.000000	70.174	37.4052
9120.000000	68.721	25.8708
9250.000000	66.814	16.2620
9380.000000	64.709	10.8424
9500.000000	62.994	11.5479
9620.000000	62.524	18.8433
9750.000000	64.211	27.4370
9880.000000	67.018	26.1029
10000.000000	69.494	15.6166
10150.000000	71.918	-6.0070
10300.000000	73.448	-34.2219
10440.000000	74.087	-63.7592
10600.000000	74.106	-97.8916
10750.000000	73.785	-127.8146
10900.000000	73.358	-155.0873
11060.000000	72.681	177.9909
11200.000000	71.729	156.2762
11380.000000	70.237	131.7108
11500.000000	69.585	116.8969
11720.000000	69.789	88.0129
11800.000000	70.043	75.8868
12060.000000	70.024	31.8861
12200.000000	69.243	7.7877
12410.000000	67.329	-25.7062
12500.000000	66.405	-39.0515
12650.000000	64.969	-60.8514
12800.000000	63.835	-83.2164
13150.000000	62.179	-140.6560
13200.000000	61.977	-149.5851
13400.000000	61.136	171.9819
13600.000000	60.388	127.9131
13800.000000	60.108	76.9138
14000.000000	60.447	21.2996
14300.000000	61.374	-58.8733
14500.000000	61.752	-109.3477
14750.000000	61.823	-166.7693
15000.000000	61.848	145.7649
15250.000000	62.228	102.9985
15500.000000	62.734	58.9827
15750.000000	62.974	13.4407
16000.000000	62.805	-30.8326
16250.000000	62.255	-73.1104
16500.000000	61.406	-113.3894
16750.000000	60.272	-151.4373
17000.000000	58.753	174.2202
17250.000000	57.223	146.8491
17500.000000	57.111	125.1825
17750.000000	58.465	99.5815
18000.000000	59.746	66.1672
18250.000000	60.363	27.5012
18500.000000	60.317	-13.7427
18750.000000	59.778	-54.2638
19000.000000	59.213	-92.7856
19250.000000	59.160	-131.5508
19500.000000	59.565	-169.6260
19750.000000	59.999	160.2729
20000.000000	60.232	144.5498
