* Measurement data measured by REW V5.31.3
* Source: Microphone (USB Sound Device        ), MICROPHONE (Master Volume), L, volume: 0.800
* Format: 256k Log Swept Sine, 1 sweep at -12.0 dBFS with no timing reference
* Dated: 29-Jan-2025 13:54:27
* REW Settings:
*  C-weighting compensation: Off
*  Target level: 75.0 dB
* Note: 
* Measurement: SoundPEATS Air4 Pro L
* Smoothing: 1/12 octave
* Frequency Step: 1/48 octave
* Start Frequency: 20.300 Hz
*
* Freq(Hz)	SPL(dB)	Phase(degrees)
20.299999	96.047	15.8986
20.600000	96.079	15.3685
20.900000	96.113	14.7167
21.200001	96.142	14.0535
21.400000	96.157	13.6326
21.799999	96.182	12.8655
22.000000	96.195	12.5157
22.400000	96.227	11.8506
22.700001	96.257	11.3470
23.000000	96.290	10.8120
23.299999	96.325	10.2349
23.600000	96.356	9.6186
24.000000	96.388	8.7619
24.299999	96.404	8.1175
24.700001	96.418	7.2857
25.000000	96.426	6.6922
25.400000	96.436	5.9399
25.799999	96.450	5.2187
26.200001	96.468	4.5108
26.500000	96.484	3.9803
26.900000	96.509	3.2677
27.200001	96.528	2.7290
27.600000	96.554	2.0085
28.000000	96.577	1.2922
28.500000	96.600	0.4134
29.000000	96.614	-0.4437
29.500000	96.624	-1.2906
30.000000	96.633	-2.1475
30.400000	96.639	-2.8480
30.700001	96.643	-3.3812
31.100000	96.648	-4.0961
31.500000	96.652	-4.8079
32.000000	96.655	-5.6835
32.500000	96.656	-6.5396
33.000000	96.653	-7.3768
33.500000	96.647	-8.1992
34.000000	96.641	-9.0152
34.500000	96.638	-9.8336
35.000000	96.635	-10.6551
35.500000	96.629	-11.4712
36.000000	96.621	-12.2734
36.500000	96.608	-13.0615
37.000000	96.592	-13.8402
37.500000	96.573	-14.6120
38.200001	96.545	-15.6871
38.700001	96.527	-16.4678
39.500000	96.497	-17.7659
40.000000	96.470	-18.5843
40.599998	96.432	-19.5238
41.200001	96.398	-20.4076
41.799999	96.376	-21.2779
42.500000	96.358	-22.3216
43.099998	96.334	-23.2144
43.700001	96.295	-24.0539
44.400002	96.237	-24.9449
45.000000	96.183	-25.6718
45.500000	96.138	-26.2915
46.200001	96.078	-27.2127
46.799999	96.028	-28.0338
47.500000	95.967	-28.9724
48.200001	95.905	-29.8551
48.700001	95.860	-30.4568
49.400002	95.795	-31.2837
50.000000	95.735	-31.9962
50.799999	95.649	-32.9523
51.500000	95.573	-33.7781
52.200001	95.501	-34.5914
53.000000	95.417	-35.5203
53.799999	95.326	-36.4420
54.500000	95.244	-37.2337
55.200001	95.164	-38.0239
56.000000	95.072	-38.9232
57.000000	94.951	-39.9823
58.000000	94.823	-40.9444
59.000000	94.692	-41.8494
60.000000	94.565	-42.7307
60.799999	94.468	-43.4337
61.500000	94.384	-44.0475
62.200001	94.298	-44.6544
63.000000	94.192	-45.3309
64.000000	94.048	-46.1346
65.000000	93.899	-46.8919
66.000000	93.754	-47.6086
67.000000	93.616	-48.2782
68.000000	93.482	-48.9134
69.000000	93.344	-49.5369
70.000000	93.199	-50.1538
71.000000	93.049	-50.7518
72.000000	92.900	-51.3053
73.000000	92.754	-51.7921
74.000000	92.610	-52.2236
75.000000	92.466	-52.6291
76.199997	92.288	-53.0936
77.500000	92.096	-53.5582
78.800003	91.909	-53.9507
80.000000	91.743	-54.2403
81.199997	91.576	-54.5130
82.500000	91.394	-54.8274
83.800003	91.214	-55.1208
85.000000	91.053	-55.3403
86.199997	90.890	-55.5083
87.500000	90.709	-55.6448
88.500000	90.569	-55.7240
90.000000	90.367	-55.8121
91.199997	90.213	-55.8357
92.500000	90.049	-55.7955
93.800003	89.888	-55.7196
95.000000	89.739	-55.6436
96.199997	89.592	-55.5607
97.500000	89.436	-55.4498
98.800003	89.282	-55.3039
100.000000	89.144	-55.1420
101.500000	88.974	-54.9142
103.000000	88.809	-54.6621
104.400002	88.663	-54.3994
106.000000	88.511	-54.0480
107.500000	88.374	-53.6686
109.000000	88.236	-53.2782
110.599998	88.092	-52.8897
112.000000	87.970	-52.5546
113.800003	87.814	-52.0765
115.000000	87.710	-51.7258
117.199997	87.521	-51.0415
118.000000	87.457	-50.7527
120.599998	87.278	-49.5979
122.000000	87.188	-48.9497
124.099998	87.055	-48.0726
125.000000	87.000	-47.7226
126.500000	86.916	-47.1519
128.000000	86.840	-46.5886
131.500000	86.689	-45.2353
132.000000	86.669	-45.0205
134.000000	86.593	-44.0985
136.000000	86.526	-43.1261
138.000000	86.470	-42.1496
140.000000	86.422	-41.2088
143.000000	86.370	-39.8817
145.000000	86.347	-39.0352
147.500000	86.339	-38.0052
150.000000	86.352	-36.9679
152.500000	86.373	-35.9591
155.000000	86.401	-35.0260
157.500000	86.439	-34.1550
160.000000	86.489	-33.3211
162.500000	86.552	-32.5620
165.000000	86.630	-31.8999
167.500000	86.719	-31.3122
170.000000	86.811	-30.7665
172.500000	86.897	-30.2437
175.000000	86.982	-29.8082
177.500000	87.075	-29.5218
180.000000	87.172	-29.3587
182.500000	87.260	-29.2725
185.000000	87.332	-29.2424
187.500000	87.388	-29.2373
190.000000	87.436	-29.2321
192.500000	87.488	-29.2535
195.000000	87.546	-29.3371
197.500000	87.614	-29.4854
200.000000	87.694	-29.6848
203.000000	87.803	-29.9731
206.000000	87.921	-30.2999
209.000000	88.040	-30.6472
212.000000	88.147	-31.0258
214.000000	88.207	-31.3055
218.000000	88.302	-31.9384
220.000000	88.339	-32.2906
224.000000	88.393	-33.0431
227.000000	88.419	-33.6188
230.000000	88.434	-34.1933
233.000000	88.439	-34.7719
236.000000	88.434	-35.3346
240.000000	88.418	-36.0310
243.000000	88.399	-36.5181
247.000000	88.358	-37.1354
250.000000	88.317	-37.5272
254.000000	88.255	-37.9030
258.000000	88.198	-38.0874
262.000000	88.164	-38.0840
265.000000	88.161	-38.0233
269.000000	88.182	-37.9947
272.000000	88.210	-38.0604
276.000000	88.247	-38.2919
280.000000	88.273	-38.6722
285.000000	88.280	-39.2566
290.000000	88.266	-39.8413
295.000000	88.245	-40.3590
300.000000	88.220	-40.8170
304.000000	88.196	-41.1176
307.000000	88.178	-41.2895
311.000000	88.153	-41.4568
315.000000	88.130	-41.5725
320.000000	88.109	-41.6828
325.000000	88.099	-41.8392
330.000000	88.100	-42.0353
335.000000	88.111	-42.2249
340.000000	88.129	-42.4070
345.000000	88.149	-42.6060
350.000000	88.165	-42.8120
355.000000	88.181	-43.0369
360.000000	88.200	-43.2790
365.000000	88.222	-43.5124
370.000000	88.245	-43.7491
375.000000	88.270	-44.0104
382.000000	88.308	-44.4132
387.000000	88.333	-44.7370
395.000000	88.371	-45.3149
400.000000	88.394	-45.7036
406.000000	88.419	-46.2072
412.000000	88.440	-46.7621
418.000000	88.453	-47.3324
425.000000	88.454	-47.9985
431.000000	88.445	-48.5617
437.000000	88.432	-49.0836
444.000000	88.416	-49.6345
450.000000	88.407	-50.0659
455.000000	88.404	-50.4082
462.000000	88.404	-50.8832
468.000000	88.408	-51.2858
475.000000	88.414	-51.7483
482.000000	88.416	-52.2215
487.000000	88.417	-52.5788
494.000000	88.417	-53.1030
500.000000	88.415	-53.5589
508.000000	88.407	-54.1527
515.000000	88.397	-54.6419
522.000000	88.387	-55.1058
530.000000	88.372	-55.6238
538.000000	88.352	-56.1427
545.000000	88.331	-56.6002
552.000000	88.309	-57.0625
560.000000	88.284	-57.5926
570.000000	88.254	-58.2202
580.000000	88.224	-58.7877
590.000000	88.190	-59.3328
600.000000	88.145	-59.8484
608.000000	88.102	-60.2087
615.000000	88.060	-60.4895
622.000000	88.018	-60.7598
630.000000	87.972	-61.0586
640.000000	87.917	-61.4034
650.000000	87.861	-61.7052
660.000000	87.805	-61.9172
670.000000	87.750	-62.0417
680.000000	87.696	-62.1032
690.000000	87.645	-62.1201
700.000000	87.596	-62.1259
710.000000	87.551	-62.0913
720.000000	87.512	-61.9661
730.000000	87.478	-61.7708
740.000000	87.451	-61.5569
750.000000	87.431	-61.3317
762.000000	87.420	-61.0082
775.000000	87.426	-60.5687
788.000000	87.449	-60.0722
800.000000	87.487	-59.6025
812.000000	87.537	-59.1327
825.000000	87.609	-58.6269
838.000000	87.698	-58.1516
850.000000	87.798	-57.7809
862.000000	87.912	-57.4855
875.000000	88.048	-57.2246
885.000000	88.157	-57.0504
900.000000	88.327	-56.8439
912.000000	88.466	-56.7682
925.000000	88.624	-56.7873
938.000000	88.787	-56.8873
950.000000	88.940	-57.0366
962.000000	89.091	-57.2411
975.000000	89.257	-57.5306
988.000000	89.428	-57.8907
1000.000000	89.590	-58.2843
1015.000000	89.788	-58.8468
1030.000000	89.977	-59.4780
1044.000000	90.146	-60.1428
1060.000000	90.334	-60.9907
1075.000000	90.507	-61.8389
1090.000000	90.675	-62.7140
1106.000000	90.846	-63.6925
1120.000000	90.989	-64.6012
1138.000000	91.171	-65.8292
1150.000000	91.291	-66.6662
1172.000000	91.503	-68.2044
1180.000000	91.577	-68.7672
1206.000000	91.806	-70.6487
1220.000000	91.929	-71.6960
1241.000000	92.117	-73.2787
1250.000000	92.199	-73.9538
1265.000000	92.336	-75.0750
1280.000000	92.470	-76.1912
1315.000000	92.745	-78.7222
1320.000000	92.776	-79.0734
1340.000000	92.865	-80.4550
1360.000000	92.898	-81.7996
1380.000000	92.887	-83.1110
1400.000000	92.856	-84.3915
1430.000000	92.824	-86.2468
1450.000000	92.833	-87.4275
1475.000000	92.877	-88.8518
1500.000000	92.941	-90.2476
1525.000000	93.016	-91.5866
1550.000000	93.096	-92.8460
1575.000000	93.174	-94.0503
1600.000000	93.248	-95.1955
1625.000000	93.320	-96.3010
1650.000000	93.394	-97.3853
1675.000000	93.466	-98.4313
1700.000000	93.538	-99.4368
1725.000000	93.610	-100.4153
1750.000000	93.687	-101.3576
1775.000000	93.768	-102.2521
1800.000000	93.850	-103.1152
1825.000000	93.936	-103.9510
1850.000000	94.028	-104.7531
1875.000000	94.126	-105.5396
1900.000000	94.231	-106.3233
1925.000000	94.341	-107.1070
1950.000000	94.457	-107.8893
1975.000000	94.578	-108.6711
2000.000000	94.703	-109.4615
2030.000000	94.861	-110.4288
2060.000000	95.028	-111.4169
2090.000000	95.206	-112.4212
2120.000000	95.393	-113.4345
2140.000000	95.521	-114.1270
2180.000000	95.785	-115.5710
2200.000000	95.922	-116.3174
2240.000000	96.203	-117.8705
2270.000000	96.417	-119.1073
2300.000000	96.636	-120.4172
2330.000000	96.862	-121.8134
2360.000000	97.094	-123.2945
2400.000000	97.408	-125.3902
2430.000000	97.645	-127.0650
2470.000000	97.956	-129.4522
2500.000000	98.183	-131.3662
2540.000000	98.476	-134.0682
2580.000000	98.754	-136.9214
2620.000000	99.014	-139.9274
2650.000000	99.195	-142.2824
2690.000000	99.413	-145.5427
2720.000000	99.556	-148.0599
2760.000000	99.716	-151.4864
2800.000000	99.843	-154.9582
2850.000000	99.953	-159.3190
2900.000000	100.012	-163.6574
2950.000000	100.017	-167.8934
3000.000000	99.971	-171.9788
3040.000000	99.903	-175.1080
3070.000000	99.838	-177.3564
3110.000000	99.735	179.7927
3150.000000	99.619	177.1157
3200.000000	99.461	174.0015
3250.000000	99.293	171.1267
3300.000000	99.114	168.4837
3350.000000	98.928	166.0706
3400.000000	98.738	163.8755
3450.000000	98.547	161.8835
3500.000000	98.360	160.0817
3550.000000	98.180	158.4548
3600.000000	98.012	156.9783
3650.000000	97.859	155.6194
3700.000000	97.728	154.3404
3750.000000	97.620	153.1148
3820.000000	97.505	151.4662
3870.000000	97.443	150.3150
3950.000000	97.362	148.4726
4000.000000	97.311	147.3213
4060.000000	97.242	145.9463
4120.000000	97.164	144.5503
4180.000000	97.074	143.1068
4250.000000	96.953	141.3680
4310.000000	96.844	139.8257
4370.000000	96.732	138.2011
4440.000000	96.593	136.1867
4500.000000	96.466	134.3988
4550.000000	96.353	132.8919
4620.000000	96.179	130.7829
4680.000000	96.005	129.0199
4750.000000	95.766	127.0901
4820.000000	95.487	125.3496
4870.000000	95.266	124.2444
4940.000000	94.927	122.9362
5000.000000	94.614	122.0886
5080.000000	94.174	121.4152
5150.000000	93.782	121.2582
5220.000000	93.398	121.4802
5300.000000	92.980	122.1685
5380.000000	92.597	123.2615
5450.000000	92.298	124.4928
5520.000000	92.043	125.9024
5600.000000	91.812	127.6181
5700.000000	91.609	129.8016
5800.000000	91.495	131.9373
5900.000000	91.453	133.9359
6000.000000	91.457	135.7784
6080.000000	91.476	137.1484
6150.000000	91.497	138.2933
6220.000000	91.520	139.4103
6300.000000	91.549	140.6790
6400.000000	91.593	142.2870
6500.000000	91.656	143.9352
6600.000000	91.748	145.6200
6700.000000	91.878	147.3220
6800.000000	92.056	149.0223
6900.000000	92.294	150.7004
7000.000000	92.599	152.2991
7100.000000	92.984	153.6949
7200.000000	93.450	154.7319
7300.000000	93.993	155.2771
7400.000000	94.605	155.2273
7500.000000	95.277	154.4696
7620.000000	96.125	152.4333
7750.000000	96.991	148.6010
7880.000000	97.660	142.9845
8000.000000	97.988	136.4134
8120.000000	97.966	129.0070
8250.000000	97.518	120.8738
8380.000000	96.674	113.5680
8500.000000	95.631	108.2290
8620.000000	94.436	104.5887
8750.000000	93.072	102.6429
8850.000000	92.030	102.4607
9000.000000	90.539	104.0049
9120.000000	89.435	106.5201
9250.000000	88.339	110.2111
9380.000000	87.350	114.6433
9500.000000	86.530	119.2224
9620.000000	85.801	124.1527
9750.000000	85.107	129.7849
9880.000000	84.509	135.6224
10000.000000	84.034	141.1107
10150.000000	83.536	148.0489
10300.000000	83.134	155.0528
10440.000000	82.831	161.6195
10600.000000	82.563	169.1001
10750.000000	82.389	176.0322
10900.000000	82.290	-177.1445
11060.000000	82.263	-169.9664
11200.000000	82.301	-163.7407
11380.000000	82.428	-155.8114
11500.000000	82.564	-150.5862
11720.000000	82.938	-141.2196
11800.000000	83.115	-137.9073
12060.000000	83.839	-127.6003
12200.000000	84.325	-122.4103
12410.000000	85.175	-115.3006
12500.000000	85.579	-112.5890
12650.000000	86.294	-108.6546
12800.000000	87.044	-105.6105
13150.000000	88.732	-103.2251
13200.000000	88.943	-103.5418
13400.000000	89.638	-106.5539
13600.000000	89.991	-111.9422
13800.000000	89.887	-118.5196
14000.000000	89.290	-124.6586
14300.000000	87.687	-130.0737
14500.000000	86.397	-130.2552
14750.000000	84.819	-126.9244
15000.000000	83.438	-120.9274
15250.000000	82.265	-113.8048
15500.000000	81.197	-106.6508
15750.000000	80.130	-99.9047
16000.000000	79.045	-93.4262
16250.000000	77.967	-86.7798
16500.000000	76.918	-79.4311
16750.000000	75.910	-70.8618
17000.000000	74.976	-60.8078
17250.000000	74.162	-49.4109
17500.000000	73.505	-37.1300
17750.000000	73.031	-24.5198
18000.000000	72.740	-12.1582
18250.000000	72.601	-0.5226
18500.000000	72.543	10.1512
18750.000000	72.486	19.7648
19000.000000	72.351	28.2596
19250.000000	72.069	35.6675
19500.000000	71.607	42.1994
19750.000000	71.048	47.7809
20000.000000	70.655	51.2869
