* Measurement data measured by REW V5.20.13
* Source: Microphone (2- USB Audio Device), MICROPHONE (Master Volume), L, volume: 0.250. Timing signal peak level -35.0 dBFS, measurement signal peak level -33.8 dBFS
* Format: 256k Log Swept Sine, 1 sweep at -12.0 dBFS using an acoustic timing reference
* Dated: 11-Sep-2023 12:13:40
* REW Settings:
*  C-weighting compensation: Off
*  Target level: 75.0 dB
* Note: 
* Measurement: Technics AZ80 Treble Plus L
* Smoothing: 1/12 octave
* Frequency Step: 1/48 octave
* Start Frequency: 20.000 Hz
*
* Freq(Hz)	SPL(dB)	Phase(degrees)
20.000000	76.618	37.8616
20.299999	76.327	36.3891
20.600000	76.076	34.4290
20.900000	75.879	32.1605
21.200001	75.754	29.7705
21.400000	75.719	28.1953
21.799999	75.759	25.2261
22.000000	75.829	23.9092
22.400000	76.053	21.7561
22.700001	76.275	20.6411
23.000000	76.531	19.9727
23.299999	76.807	19.6871
23.600000	77.087	19.6991
24.000000	77.436	20.0513
24.299999	77.659	20.5121
24.700001	77.892	21.3812
25.000000	78.020	22.2259
25.400000	78.136	23.5682
25.799999	78.202	25.0320
26.200001	78.224	26.4566
26.500000	78.211	27.4206
26.900000	78.154	28.5068
27.200001	78.084	29.1467
27.600000	77.959	29.7449
28.000000	77.809	30.0363
28.500000	77.607	29.9661
29.000000	77.419	29.4346
29.500000	77.272	28.4859
30.000000	77.185	27.2251
30.400000	77.163	26.1103
30.700001	77.175	25.2783
31.100000	77.231	24.2442
31.500000	77.326	23.3378
32.000000	77.486	22.4162
32.500000	77.663	21.7571
33.000000	77.833	21.3884
33.500000	77.982	21.3034
34.000000	78.103	21.4435
34.500000	78.189	21.7230
35.000000	78.239	22.0635
35.500000	78.256	22.3880
36.000000	78.244	22.6279
36.500000	78.210	22.7348
37.000000	78.160	22.6887
37.500000	78.102	22.4981
38.200001	78.026	22.0332
38.700001	77.991	21.5897
39.500000	77.979	20.7313
40.000000	77.996	20.1413
40.599998	78.033	19.4515
41.200001	78.080	18.8561
41.799999	78.129	18.3900
42.500000	78.182	18.0076
43.099998	78.219	17.7902
43.700001	78.246	17.6166
44.400002	78.263	17.3918
45.000000	78.259	17.1638
45.500000	78.245	16.9711
46.200001	78.223	16.7080
46.799999	78.211	16.4533
47.500000	78.205	16.0783
48.200001	78.202	15.6534
48.700001	78.201	15.3632
49.400002	78.202	15.0059
50.000000	78.205	14.7261
50.799999	78.206	14.3371
51.500000	78.201	13.9571
52.200001	78.189	13.5492
53.000000	78.169	13.0810
53.799999	78.148	12.6453
54.500000	78.130	12.3081
55.200001	78.112	12.0205
56.000000	78.092	11.7607
57.000000	78.066	11.5324
58.000000	78.039	11.3408
59.000000	78.005	11.1153
60.000000	77.968	10.8423
60.799999	77.942	10.5570
61.500000	77.922	10.2442
62.200001	77.901	9.9043
63.000000	77.877	9.5479
64.000000	77.857	9.2011
65.000000	77.849	8.9108
66.000000	77.839	8.6225
67.000000	77.812	8.3594
68.000000	77.772	8.1366
69.000000	77.727	7.9321
70.000000	77.685	7.7202
71.000000	77.652	7.4773
72.000000	77.627	7.1982
73.000000	77.604	6.9085
74.000000	77.578	6.6346
75.000000	77.546	6.3812
76.199997	77.498	6.1019
77.500000	77.442	5.8270
78.800003	77.393	5.5673
80.000000	77.357	5.3178
81.199997	77.322	5.0543
82.500000	77.276	4.8100
83.800003	77.224	4.6583
85.000000	77.177	4.5526
86.199997	77.129	4.4061
87.500000	77.071	4.1856
88.500000	77.022	3.9972
90.000000	76.946	3.7255
91.199997	76.891	3.5134
92.500000	76.835	3.2838
93.800003	76.783	3.0718
95.000000	76.736	2.9059
96.199997	76.691	2.7734
97.500000	76.643	2.6491
98.800003	76.591	2.5101
100.000000	76.537	2.3603
101.500000	76.462	2.1798
103.000000	76.386	2.0484
104.400002	76.323	1.9661
106.000000	76.259	1.8946
107.500000	76.204	1.8419
109.000000	76.150	1.7756
110.599998	76.088	1.6689
112.000000	76.026	1.5689
113.800003	75.944	1.4654
115.000000	75.892	1.4159
117.199997	75.809	1.3758
118.000000	75.782	1.3816
120.599998	75.698	1.4796
122.000000	75.650	1.5694
124.099998	75.568	1.7108
125.000000	75.532	1.7707
126.500000	75.475	1.8742
128.000000	75.427	1.9795
131.500000	75.335	2.2310
132.000000	75.322	2.2721
134.000000	75.258	2.4533
136.000000	75.183	2.6524
138.000000	75.102	2.8491
140.000000	75.029	3.0065
143.000000	74.939	3.0977
145.000000	74.883	3.1095
147.500000	74.802	3.1859
150.000000	74.716	3.4062
152.500000	74.646	3.7259
155.000000	74.593	4.0286
157.500000	74.541	4.2998
160.000000	74.488	4.5702
162.500000	74.440	4.8301
165.000000	74.400	5.0894
167.500000	74.370	5.3563
170.000000	74.345	5.6124
172.500000	74.318	5.8417
175.000000	74.284	6.0711
177.500000	74.238	6.3518
180.000000	74.185	6.6804
182.500000	74.127	7.0006
185.000000	74.064	7.2754
187.500000	74.003	7.5067
190.000000	73.944	7.7155
192.500000	73.886	7.9166
195.000000	73.827	8.1147
197.500000	73.778	8.3076
200.000000	73.748	8.4958
203.000000	73.738	8.7047
206.000000	73.746	8.8584
209.000000	73.767	8.9490
212.000000	73.791	9.0486
214.000000	73.802	9.1613
218.000000	73.800	9.4987
220.000000	73.793	9.6731
224.000000	73.783	9.9038
227.000000	73.778	9.9917
230.000000	73.770	10.0843
233.000000	73.760	10.2127
236.000000	73.751	10.3587
240.000000	73.732	10.5336
243.000000	73.714	10.6284
247.000000	73.689	10.6911
250.000000	73.677	10.6883
254.000000	73.676	10.6479
258.000000	73.682	10.6205
262.000000	73.682	10.6194
265.000000	73.681	10.6181
269.000000	73.683	10.5852
272.000000	73.684	10.5322
276.000000	73.687	10.4394
280.000000	73.700	10.3393
285.000000	73.717	10.2416
290.000000	73.716	10.1607
295.000000	73.698	10.0178
300.000000	73.670	9.8460
304.000000	73.644	9.7559
307.000000	73.626	9.7234
311.000000	73.608	9.7003
315.000000	73.598	9.6833
320.000000	73.599	9.6621
325.000000	73.624	9.6247
330.000000	73.665	9.5714
335.000000	73.713	9.4858
340.000000	73.767	9.3133
345.000000	73.827	9.0277
350.000000	73.878	8.6910
355.000000	73.908	8.3355
360.000000	73.927	7.9417
365.000000	73.949	7.4815
370.000000	73.975	6.9300
375.000000	73.998	6.2982
382.000000	74.019	5.3836
387.000000	74.027	4.7864
395.000000	74.037	3.9175
400.000000	74.044	3.3289
406.000000	74.055	2.5370
412.000000	74.070	1.6592
418.000000	74.085	0.7472
425.000000	74.099	-0.2715
431.000000	74.102	-1.1131
437.000000	74.100	-1.9981
444.000000	74.091	-3.1230
450.000000	74.079	-4.0940
455.000000	74.064	-4.8540
462.000000	74.033	-5.8422
468.000000	73.995	-6.6707
475.000000	73.939	-7.6547
482.000000	73.876	-8.6343
487.000000	73.826	-9.3033
494.000000	73.747	-10.1458
500.000000	73.673	-10.7650
508.000000	73.571	-11.4561
515.000000	73.487	-11.9461
522.000000	73.419	-12.3668
530.000000	73.364	-12.8170
538.000000	73.322	-13.2660
545.000000	73.286	-13.6505
552.000000	73.249	-13.9878
560.000000	73.222	-14.3245
570.000000	73.226	-14.7918
580.000000	73.265	-15.3707
590.000000	73.314	-16.0833
600.000000	73.363	-16.9361
608.000000	73.399	-17.6546
615.000000	73.429	-18.2796
622.000000	73.459	-18.8999
630.000000	73.493	-19.6271
640.000000	73.539	-20.6139
650.000000	73.579	-21.7153
660.000000	73.614	-22.9127
670.000000	73.661	-24.1599
680.000000	73.725	-25.4126
690.000000	73.785	-26.6901
700.000000	73.824	-28.0734
710.000000	73.846	-29.5892
720.000000	73.869	-31.1322
730.000000	73.902	-32.5981
740.000000	73.937	-34.0251
750.000000	73.968	-35.4985
762.000000	73.992	-37.3371
775.000000	74.003	-39.4127
788.000000	74.018	-41.5758
800.000000	74.043	-43.5997
812.000000	74.077	-45.6873
825.000000	74.115	-48.0563
838.000000	74.147	-50.5094
850.000000	74.175	-52.8247
862.000000	74.210	-55.1443
875.000000	74.258	-57.6262
885.000000	74.300	-59.5365
900.000000	74.364	-62.4628
912.000000	74.417	-64.8514
925.000000	74.482	-67.4450
938.000000	74.557	-70.0065
950.000000	74.626	-72.3109
962.000000	74.690	-74.5684
975.000000	74.752	-77.0488
988.000000	74.803	-79.6399
1000.000000	74.840	-82.1163
1015.000000	74.873	-85.2437
1030.000000	74.897	-88.3513
1044.000000	74.924	-91.2304
1060.000000	74.963	-94.4932
1075.000000	75.000	-97.5714
1090.000000	75.032	-100.7418
1106.000000	75.066	-104.2241
1120.000000	75.103	-107.2993
1138.000000	75.159	-111.2402
1150.000000	75.196	-113.8577
1172.000000	75.261	-118.7463
1180.000000	75.286	-120.5891
1206.000000	75.379	-126.7670
1220.000000	75.446	-130.0927
1241.000000	75.569	-134.9498
1250.000000	75.628	-136.9910
1265.000000	75.731	-140.3834
1280.000000	75.838	-143.8137
1315.000000	76.077	-152.0297
1320.000000	76.106	-153.2181
1340.000000	76.191	-157.9815
1360.000000	76.220	-162.7758
1380.000000	76.203	-167.6382
1400.000000	76.167	-172.5544
1430.000000	76.139	-179.9771
1450.000000	76.162	175.0721
1475.000000	76.237	168.8848
1500.000000	76.341	162.6356
1525.000000	76.440	156.2807
1550.000000	76.539	149.8638
1575.000000	76.658	143.5408
1600.000000	76.801	137.3718
1625.000000	76.955	131.1834
1650.000000	77.094	124.7519
1675.000000	77.208	118.0249
1700.000000	77.312	111.1612
1725.000000	77.422	104.3319
1750.000000	77.540	97.5308
1775.000000	77.656	90.6602
1800.000000	77.762	83.6936
1825.000000	77.863	76.6852
1850.000000	77.972	69.7159
1875.000000	78.093	62.8311
1900.000000	78.219	55.9907
1925.000000	78.345	49.0980
1950.000000	78.466	42.0914
1975.000000	78.580	34.9764
2000.000000	78.692	27.7855
2030.000000	78.832	19.0996
2060.000000	78.980	10.3669
2090.000000	79.124	1.5323
2120.000000	79.249	-7.4725
2140.000000	79.326	-13.5500
2180.000000	79.481	-25.7327
2200.000000	79.559	-31.7904
2240.000000	79.707	-43.8608
2270.000000	79.805	-52.9670
2300.000000	79.892	-62.1550
2330.000000	79.975	-71.3861
2360.000000	80.056	-80.5961
2400.000000	80.158	-92.6549
2430.000000	80.228	-101.3147
2470.000000	80.315	-111.9404
2500.000000	80.384	-119.0519
2540.000000	80.479	-127.5628
2580.000000	80.559	-135.5394
2620.000000	80.614	-143.5076
2650.000000	80.637	-149.5856
2690.000000	80.643	-157.7772
2720.000000	80.629	-163.9125
2760.000000	80.599	-171.9946
2800.000000	80.565	-179.9550
2850.000000	80.513	170.0083
2900.000000	80.445	159.6400
2950.000000	80.381	149.1617
3000.000000	80.346	138.9650
3040.000000	80.325	131.0836
3070.000000	80.305	125.2604
3110.000000	80.267	117.4884
3150.000000	80.215	109.6417
3200.000000	80.143	99.8397
3250.000000	80.076	90.2713
3300.000000	80.012	80.9415
3350.000000	79.937	71.6266
3400.000000	79.846	62.1998
3450.000000	79.744	52.7809
3500.000000	79.639	43.5878
3550.000000	79.535	34.7490
3600.000000	79.436	26.2432
3650.000000	79.345	17.9103
3700.000000	79.262	9.5397
3750.000000	79.186	1.0433
3820.000000	79.094	-10.9353
3870.000000	79.035	-19.4155
3950.000000	78.956	-32.7700
4000.000000	78.913	-41.0591
4060.000000	78.853	-51.0238
4120.000000	78.775	-60.9194
4180.000000	78.693	-70.5323
4250.000000	78.606	-81.3349
4310.000000	78.525	-90.5771
4370.000000	78.430	-100.2255
4440.000000	78.318	-112.1221
4500.000000	78.240	-122.4895
4550.000000	78.197	-130.9152
4620.000000	78.173	-142.1978
4680.000000	78.176	-151.5327
4750.000000	78.192	-162.3584
4820.000000	78.223	-173.3495
4870.000000	78.257	178.6768
4940.000000	78.324	167.4640
5000.000000	78.393	157.9717
5080.000000	78.499	145.6567
5150.000000	78.595	135.0945
5220.000000	78.681	124.4591
5300.000000	78.760	112.0425
5380.000000	78.836	99.5012
5450.000000	78.909	88.5513
5520.000000	78.987	77.5214
5600.000000	79.074	64.5598
5700.000000	79.178	47.7004
5800.000000	79.302	30.6140
5900.000000	79.468	13.9421
6000.000000	79.685	-2.1931
6080.000000	79.889	-15.0334
6150.000000	80.070	-26.5569
6220.000000	80.241	-38.5605
6300.000000	80.415	-52.8992
6400.000000	80.607	-71.4056
6500.000000	80.777	-89.9888
6600.000000	80.923	-108.3971
6700.000000	81.037	-126.9624
6800.000000	81.111	-146.0385
6900.000000	81.147	-165.3105
7000.000000	81.155	175.8417
7100.000000	81.138	157.6179
7200.000000	81.103	139.7566
7300.000000	81.055	121.8005
7400.000000	80.988	103.4276
7500.000000	80.906	84.8162
7620.000000	80.805	62.9182
7750.000000	80.687	40.4258
7880.000000	80.542	18.8385
8000.000000	80.387	-1.2646
8120.000000	80.264	-21.8158
8250.000000	80.243	-43.9922
8380.000000	80.388	-65.6016
8500.000000	80.658	-85.3086
8620.000000	81.022	-105.3975
8750.000000	81.474	-128.3882
8850.000000	81.838	-147.2744
9000.000000	82.384	-177.4885
9120.000000	82.796	156.7480
9250.000000	83.185	127.0624
9380.000000	83.484	95.6345
9500.000000	83.658	65.4445
9620.000000	83.711	34.6187
9750.000000	83.615	1.2057
9880.000000	83.350	-31.5818
10000.000000	82.963	-60.9897
10150.000000	82.314	-96.7090
10300.000000	81.510	-131.6816
10440.000000	80.661	-163.5386
10600.000000	79.636	161.6201
10750.000000	78.675	130.8276
10900.000000	77.753	101.7244
11060.000000	76.844	71.9868
11200.000000	76.116	46.5032
11380.000000	75.261	14.0188
11500.000000	74.740	-7.3247
11720.000000	73.901	-45.2551
11800.000000	73.635	-58.7346
12060.000000	72.901	-102.7400
12200.000000	72.579	-127.1021
12410.000000	72.188	-164.3909
12500.000000	72.054	179.5552
12650.000000	71.874	152.9731
12800.000000	71.742	126.8130
13150.000000	71.532	66.8560
13200.000000	71.507	58.2285
13400.000000	71.436	23.2659
13600.000000	71.487	-12.1255
13800.000000	71.739	-47.4438
14000.000000	72.213	-82.8604
14300.000000	73.221	-138.3301
14500.000000	73.957	-178.0586
14750.000000	74.760	128.8044
15000.000000	75.235	72.5569
15250.000000	75.192	15.0474
15500.000000	74.550	-41.1091
15750.000000	73.391	-94.1663
16000.000000	71.926	-144.0625
16250.000000	70.420	168.8979
16500.000000	69.095	124.1692
16750.000000	68.069	80.7737
17000.000000	67.352	36.9695
17250.000000	66.912	-8.8032
17500.000000	66.734	-56.6104
17750.000000	66.806	-105.6970
18000.000000	67.099	-155.5398
18250.000000	67.526	153.5874
18500.000000	67.938	100.5024
18750.000000	68.182	43.7991
19000.000000	68.139	-16.6421
19250.000000	67.770	-78.5620
19500.000000	67.133	-137.2949
19750.000000	66.401	174.4451
