* Measurement data measured by REW V5.20.13
* Source: Microphone (4- USB Audio Device), MICROPHONE (Master Volume), L, volume: 0.250. Timing signal peak level -35.1 dBFS, measurement signal peak level -34.8 dBFS
* Format: 256k Log Swept Sine, 1 sweep at -12.0 dBFS using an acoustic timing reference
* Dated: 06-Apr-2023 23:30:39
* REW Settings:
*  C-weighting compensation: Off
*  Target level: 75.0 dB
* Note: Tronsmart Onyx Pure L
* Measurement: Tronsmart Onyx Pure L
* Smoothing: 1/12 octave
* Frequency Step: 1/48 octave
* Start Frequency: 20.300 Hz
*
* Freq(Hz)	SPL(dB)	Phase(degrees)
20.299999	62.527	-87.4871
20.600000	62.597	-87.8767
20.900000	62.763	-88.6522
21.200001	62.936	-89.3547
21.400000	63.045	-89.7266
21.799999	63.241	-90.2835
22.000000	63.327	-90.5109
22.400000	63.480	-90.9866
22.700001	63.583	-91.4317
23.000000	63.681	-91.9851
23.299999	63.781	-92.6334
23.600000	63.886	-93.3430
24.000000	64.038	-94.3149
24.299999	64.161	-95.0112
24.700001	64.331	-95.8575
25.000000	64.459	-96.4300
25.400000	64.623	-97.1365
25.799999	64.773	-97.8229
26.200001	64.907	-98.5253
26.500000	64.999	-99.0711
26.900000	65.117	-99.8233
27.200001	65.205	-100.4016
27.600000	65.326	-101.1873
28.000000	65.452	-101.9864
28.500000	65.612	-102.9951
29.000000	65.768	-103.9983
29.500000	65.922	-104.9922
30.000000	66.076	-106.0008
30.400000	66.198	-106.8392
30.700001	66.288	-107.4876
31.100000	66.402	-108.3607
31.500000	66.508	-109.2138
32.000000	66.633	-110.2115
32.500000	66.757	-111.1288
33.000000	66.883	-112.0070
33.500000	67.008	-112.8870
34.000000	67.131	-113.7777
34.500000	67.250	-114.6678
35.000000	67.368	-115.5601
35.500000	67.486	-116.4790
36.000000	67.603	-117.4414
36.500000	67.715	-118.4334
37.000000	67.822	-119.4197
37.500000	67.926	-120.3761
38.200001	68.067	-121.6638
38.700001	68.162	-122.5572
39.500000	68.306	-123.9411
40.000000	68.394	-124.7840
40.599998	68.499	-125.7999
41.200001	68.604	-126.8419
41.799999	68.703	-127.9005
42.500000	68.814	-129.1293
43.099998	68.907	-130.1760
43.700001	68.998	-131.2323
44.400002	69.102	-132.4750
45.000000	69.185	-133.5248
45.500000	69.253	-134.3761
46.200001	69.346	-135.5474
46.799999	69.423	-136.5646
47.500000	69.505	-137.7854
48.200001	69.582	-139.0197
48.700001	69.636	-139.8951
49.400002	69.715	-141.1145
50.000000	69.782	-142.1657
50.799999	69.861	-143.5807
51.500000	69.916	-144.8253
52.200001	69.960	-146.0701
53.000000	70.002	-147.4847
53.799999	70.043	-148.8813
54.500000	70.084	-150.0805
55.200001	70.129	-151.2484
56.000000	70.184	-152.5490
57.000000	70.249	-154.1681
58.000000	70.301	-155.7977
59.000000	70.344	-157.4060
60.000000	70.384	-158.9800
60.799999	70.416	-160.2311
61.500000	70.444	-161.3389
62.200001	70.471	-162.4629
63.000000	70.501	-163.7477
64.000000	70.538	-165.3170
65.000000	70.573	-166.8433
66.000000	70.605	-168.3645
67.000000	70.632	-169.9069
68.000000	70.651	-171.4431
69.000000	70.662	-172.9288
70.000000	70.669	-174.3613
71.000000	70.672	-175.7654
72.000000	70.669	-177.1478
73.000000	70.662	-178.5070
74.000000	70.659	-179.8626
75.000000	70.658	178.7717
76.199997	70.656	177.1448
77.500000	70.650	175.4118
78.800003	70.642	173.6635
80.000000	70.630	172.0346
81.199997	70.612	170.4320
82.500000	70.587	168.7319
83.800003	70.562	167.0790
85.000000	70.535	165.6051
86.199997	70.502	164.1568
87.500000	70.464	162.5721
88.500000	70.437	161.3255
90.000000	70.394	159.4357
91.199997	70.356	157.9410
92.500000	70.312	156.3496
93.800003	70.265	154.7804
95.000000	70.217	153.3503
96.199997	70.167	151.9396
97.500000	70.112	150.4282
98.800003	70.059	148.9229
100.000000	70.007	147.5396
101.500000	69.937	145.8362
103.000000	69.865	144.1656
104.400002	69.798	142.6250
106.000000	69.723	140.8759
107.500000	69.651	139.2471
109.000000	69.574	137.6365
110.599998	69.489	135.9431
112.000000	69.413	134.4915
113.800003	69.316	132.6691
115.000000	69.250	131.4703
117.199997	69.127	129.2907
118.000000	69.081	128.5045
120.599998	68.924	125.9813
122.000000	68.837	124.6506
124.099998	68.707	122.7122
125.000000	68.652	121.9049
126.500000	68.559	120.5887
128.000000	68.468	119.3091
131.500000	68.256	116.3989
132.000000	68.226	115.9847
134.000000	68.104	114.3449
136.000000	67.985	112.7523
138.000000	67.867	111.1930
140.000000	67.753	109.6442
143.000000	67.588	107.3872
145.000000	67.480	105.9454
147.500000	67.341	104.1507
150.000000	67.198	102.3548
152.500000	67.054	100.6266
155.000000	66.911	98.9637
157.500000	66.771	97.3118
160.000000	66.641	95.6537
162.500000	66.523	94.0147
165.000000	66.417	92.4043
167.500000	66.317	90.7925
170.000000	66.222	89.1731
172.500000	66.131	87.5785
175.000000	66.045	86.0327
177.500000	65.962	84.5221
180.000000	65.878	83.0067
182.500000	65.790	81.4572
185.000000	65.696	79.8837
187.500000	65.595	78.3275
190.000000	65.491	76.8247
192.500000	65.396	75.3887
195.000000	65.321	74.0132
197.500000	65.269	72.6752
200.000000	65.243	71.3419
203.000000	65.236	69.7264
206.000000	65.241	68.1374
209.000000	65.248	66.6080
212.000000	65.252	65.0937
214.000000	65.251	64.0687
218.000000	65.242	61.9719
220.000000	65.235	60.9104
224.000000	65.221	58.7661
227.000000	65.211	57.1020
230.000000	65.200	55.3793
233.000000	65.192	53.6230
236.000000	65.188	51.8604
240.000000	65.185	49.5071
243.000000	65.180	47.7054
247.000000	65.170	45.2494
250.000000	65.162	43.3905
254.000000	65.152	40.8727
258.000000	65.139	38.2993
262.000000	65.124	35.7033
265.000000	65.114	33.7546
269.000000	65.105	31.1578
272.000000	65.099	29.2172
276.000000	65.087	26.6381
280.000000	65.075	24.0186
285.000000	65.062	20.6093
290.000000	65.049	17.1581
295.000000	65.023	13.7569
300.000000	64.985	10.3420
304.000000	64.951	7.5861
307.000000	64.929	5.5247
311.000000	64.904	2.8017
315.000000	64.884	0.1023
320.000000	64.858	-3.2809
325.000000	64.832	-6.6977
330.000000	64.809	-10.1335
335.000000	64.786	-13.5675
340.000000	64.762	-16.9818
345.000000	64.739	-20.3712
350.000000	64.714	-23.7432
355.000000	64.687	-27.1095
360.000000	64.662	-30.4546
365.000000	64.639	-33.7778
370.000000	64.616	-37.1141
375.000000	64.591	-40.4937
382.000000	64.555	-45.2821
387.000000	64.528	-48.7144
395.000000	64.497	-54.1884
400.000000	64.490	-57.5610
406.000000	64.490	-61.5362
412.000000	64.492	-65.4454
418.000000	64.493	-69.3343
425.000000	64.498	-73.8932
431.000000	64.500	-77.8549
437.000000	64.496	-81.8701
444.000000	64.484	-86.6041
450.000000	64.478	-90.7095
455.000000	64.480	-94.1684
462.000000	64.491	-99.0533
468.000000	64.503	-103.2657
475.000000	64.515	-108.2114
482.000000	64.525	-113.1884
487.000000	64.528	-116.7587
494.000000	64.530	-121.7703
500.000000	64.530	-126.0624
508.000000	64.537	-131.7697
515.000000	64.550	-136.7737
522.000000	64.568	-141.8019
530.000000	64.593	-147.5473
538.000000	64.614	-153.2592
545.000000	64.625	-158.2400
552.000000	64.630	-163.2323
560.000000	64.636	-168.9731
570.000000	64.637	-176.1688
580.000000	64.633	176.7646
590.000000	64.632	169.9708
600.000000	64.639	163.4881
608.000000	64.653	158.5167
615.000000	64.668	154.2956
622.000000	64.681	150.1537
630.000000	64.692	145.4600
640.000000	64.702	139.6094
650.000000	64.712	133.7832
660.000000	64.723	127.9562
670.000000	64.733	122.1400
680.000000	64.747	116.3971
690.000000	64.765	110.7058
700.000000	64.786	105.0029
710.000000	64.807	99.2497
720.000000	64.828	93.4273
730.000000	64.846	87.5398
740.000000	64.860	81.6231
750.000000	64.876	75.7154
762.000000	64.901	68.6642
775.000000	64.931	61.0814
788.000000	64.965	53.5372
800.000000	65.001	46.5781
812.000000	65.043	39.6113
825.000000	65.088	32.0456
838.000000	65.130	24.4603
850.000000	65.168	17.4669
862.000000	65.211	10.4938
875.000000	65.265	2.9686
885.000000	65.309	-2.8088
900.000000	65.381	-11.5416
912.000000	65.439	-18.6617
925.000000	65.499	-26.5389
938.000000	65.559	-34.5602
950.000000	65.619	-42.0502
962.000000	65.684	-49.5916
975.000000	65.754	-57.8040
988.000000	65.823	-66.0572
1000.000000	65.889	-73.6986
1015.000000	65.977	-83.2527
1030.000000	66.063	-92.8177
1044.000000	66.140	-101.8085
1060.000000	66.228	-112.2012
1075.000000	66.312	-122.0100
1090.000000	66.394	-131.8235
1106.000000	66.475	-142.3129
1120.000000	66.541	-151.5322
1138.000000	66.620	-163.4126
1150.000000	66.672	-171.3110
1172.000000	66.772	174.2915
1180.000000	66.809	169.0697
1206.000000	66.930	152.0233
1220.000000	66.993	142.7605
1241.000000	67.090	128.7986
1250.000000	67.132	122.8154
1265.000000	67.203	112.8782
1280.000000	67.280	103.0157
1315.000000	67.448	80.3757
1320.000000	67.465	77.1758
1340.000000	67.495	64.4167
1360.000000	67.464	51.6678
1380.000000	67.392	38.8959
1400.000000	67.305	26.1605
1430.000000	67.191	7.2650
1450.000000	67.141	-5.1992
1475.000000	67.107	-20.6686
1500.000000	67.098	-36.0513
1525.000000	67.103	-51.3527
1550.000000	67.112	-66.6145
1575.000000	67.118	-81.9139
1600.000000	67.120	-97.2710
1625.000000	67.120	-112.6483
1650.000000	67.119	-128.0177
1675.000000	67.119	-143.3766
1700.000000	67.122	-158.7274
1725.000000	67.127	-174.1129
1750.000000	67.136	170.4409
1775.000000	67.149	154.9410
1800.000000	67.163	139.4011
1825.000000	67.177	123.8284
1850.000000	67.192	108.2216
1875.000000	67.210	92.5533
1900.000000	67.229	76.7755
1925.000000	67.245	60.8602
1950.000000	67.262	44.8278
1975.000000	67.279	28.7439
2000.000000	67.300	12.6774
2030.000000	67.334	-6.5181
2060.000000	67.371	-25.5875
2090.000000	67.406	-44.5264
2120.000000	67.440	-63.3511
2140.000000	67.462	-75.8605
2180.000000	67.507	-100.8827
2200.000000	67.528	-113.4265
2240.000000	67.565	-138.5562
2270.000000	67.584	-157.3927
2300.000000	67.597	-176.2115
2330.000000	67.605	164.9919
2360.000000	67.610	146.2430
2400.000000	67.612	121.3477
2430.000000	67.605	102.6931
2470.000000	67.579	77.6876
2500.000000	67.549	58.8333
2540.000000	67.499	33.7162
2580.000000	67.439	8.7946
2620.000000	67.374	-15.8722
2650.000000	67.323	-34.2322
2690.000000	67.254	-58.5562
2720.000000	67.201	-76.6863
2760.000000	67.133	-100.7283
2800.000000	67.070	-124.6553
2850.000000	66.996	-154.4526
2900.000000	66.921	175.7993
2950.000000	66.845	146.0032
3000.000000	66.761	116.1453
3040.000000	66.690	92.3198
3070.000000	66.637	74.5586
3110.000000	66.571	51.0664
3150.000000	66.514	27.7805
3200.000000	66.456	-1.1125
3250.000000	66.409	-29.9053
3300.000000	66.367	-58.7998
3350.000000	66.329	-87.9155
3400.000000	66.296	-117.2004
3450.000000	66.275	-146.5403
3500.000000	66.268	-175.8213
3550.000000	66.280	155.0630
3600.000000	66.316	126.1426
3650.000000	66.381	97.3657
3700.000000	66.476	68.6406
3750.000000	66.599	39.9285
3820.000000	66.819	0.0642
3870.000000	67.009	-27.6631
3950.000000	67.374	-69.3928
4000.000000	67.643	-93.4526
4060.000000	67.988	-120.7012
4120.000000	68.344	-146.9170
4180.000000	68.711	-172.6719
4250.000000	69.154	157.3042
4310.000000	69.549	131.3059
4370.000000	69.970	105.0996
4440.000000	70.511	74.4348
4500.000000	71.021	48.0625
4550.000000	71.471	25.9226
4620.000000	72.108	-5.5132
4680.000000	72.624	-32.9937
4750.000000	73.138	-65.7375
4820.000000	73.494	-99.0999
4870.000000	73.621	-123.0930
4940.000000	73.597	-156.4614
5000.000000	73.395	175.5635
5080.000000	72.920	139.7952
5150.000000	72.386	110.3152
5220.000000	71.819	82.5735
5300.000000	71.200	52.6138
5380.000000	70.652	23.9478
5450.000000	70.239	-0.4749
5520.000000	69.879	-24.5977
5600.000000	69.526	-52.0071
5700.000000	69.161	-85.8970
5800.000000	68.865	-119.0457
5900.000000	68.633	-151.3462
6000.000000	68.459	177.0183
6080.000000	68.347	151.9883
6150.000000	68.264	130.1311
6220.000000	68.189	108.2029
6300.000000	68.113	83.0310
6400.000000	68.036	51.5874
6500.000000	68.001	20.4490
6600.000000	68.016	-10.3257
6700.000000	68.081	-40.9263
6800.000000	68.196	-71.4941
6900.000000	68.366	-101.9368
7000.000000	68.604	-132.1953
7100.000000	68.918	-162.5242
7200.000000	69.312	166.8147
7300.000000	69.795	135.8022
7400.000000	70.371	104.4622
7500.000000	71.042	72.7239
7620.000000	71.943	33.7241
7750.000000	72.941	-10.5420
7880.000000	73.811	-57.7256
8000.000000	74.361	-104.0239
8120.000000	74.564	-152.3350
8250.000000	74.330	154.7139
8380.000000	73.636	103.0435
8500.000000	72.663	57.6675
8620.000000	71.482	14.8867
8750.000000	70.090	-28.7842
8850.000000	69.010	-60.6826
9000.000000	67.460	-105.8296
9120.000000	66.319	-139.8218
9250.000000	65.184	-175.0293
9380.000000	64.143	151.1035
9500.000000	63.269	121.0249
9620.000000	62.497	92.1646
9750.000000	61.783	62.1079
9880.000000	61.179	32.9287
10000.000000	60.707	6.5713
10150.000000	60.224	-25.6553
10300.000000	59.852	-57.1504
10440.000000	59.583	-86.3193
10600.000000	59.357	-120.3062
10750.000000	59.233	-153.2134
10900.000000	59.200	173.2246
11060.000000	59.253	137.1064
11200.000000	59.362	105.3203
11380.000000	59.578	64.3218
11500.000000	59.756	36.9380
11720.000000	60.118	-13.3364
11800.000000	60.250	-31.6138
12060.000000	60.626	-90.9209
12200.000000	60.769	-122.9321
12410.000000	60.850	-171.2461
12500.000000	60.827	168.1030
12650.000000	60.707	134.1338
12800.000000	60.490	100.9360
13150.000000	59.671	26.1997
13200.000000	59.537	15.7935
13400.000000	59.053	-25.2900
13600.000000	58.764	-65.8809
13800.000000	58.721	-106.6211
14000.000000	58.864	-148.0557
14300.000000	59.305	148.4526
14500.000000	59.733	105.6323
14750.000000	60.393	51.6392
15000.000000	61.080	-3.2080
15250.000000	61.562	-59.8267
15500.000000	61.558	-118.9814
15750.000000	60.886	-179.5601
16000.000000	59.576	121.2261
16250.000000	57.826	65.0283
16500.000000	55.895	10.6963
16750.000000	54.022	-47.1069
17000.000000	52.414	-121.2939
17250.000000	51.173	130.9526
17500.000000	50.273	-6.5288
17750.000000	49.682	-139.5874
18000.000000	49.408	102.8394
18250.000000	49.439	-24.6709
18500.000000	49.720	-176.9966
18750.000000	50.150	19.2793
19000.000000	50.599	-147.7803
19250.000000	50.943	44.5454
19500.000000	51.116	-111.7842
19750.000000	51.120	114.7402
