* Measurement data measured by REW V5.20.13
* Source: Microphone (2- USB Audio Device), MICROPHONE (Master Volume), L, volume: 0.250. Timing signal peak level -38.8 dBFS, measurement signal peak level -37.5 dBFS
* Format: 256k Log Swept Sine, 1 sweep at -12.0 dBFS using an acoustic timing reference
* Dated: 11-Jul-2023 15:10:53
* REW Settings:
*  C-weighting compensation: Off
*  Target level: 75.0 dB
* Note: 
* Measurement: TrueFree T3 L
* Smoothing: 1/12 octave
* Frequency Step: 1/48 octave
* Start Frequency: 20.000 Hz
*
* Freq(Hz)	SPL(dB)	Phase(degrees)
20.000000	62.344	155.4906
20.299999	62.297	167.4993
20.600000	62.266	178.7961
20.900000	62.186	-170.5287
21.200001	62.014	-160.0964
21.400000	61.856	-153.0420
21.799999	61.491	-138.6909
22.000000	61.305	-131.4944
22.400000	60.926	-117.4614
22.700001	60.569	-107.2068
23.000000	60.080	-96.5745
23.299999	59.474	-84.8651
23.600000	58.840	-71.9824
24.000000	58.123	-53.6603
24.299999	57.736	-39.8810
24.700001	57.339	-21.8066
25.000000	57.072	-8.0967
25.400000	56.816	10.7361
25.799999	56.793	29.3853
26.200001	56.922	46.6292
26.500000	56.994	58.6173
26.900000	56.991	74.1223
27.200001	56.964	85.8643
27.600000	57.000	101.5270
28.000000	57.132	116.2883
28.500000	57.228	132.6819
29.000000	57.031	147.8021
29.500000	56.544	163.2290
30.000000	55.914	179.3391
30.400000	55.351	-167.6080
30.700001	54.871	-157.6897
31.100000	54.113	-143.8102
31.500000	53.242	-128.7919
32.000000	52.131	-108.7581
32.500000	51.092	-88.1586
33.000000	49.999	-65.9316
33.500000	48.829	-39.7522
34.000000	48.067	-10.1442
34.500000	48.174	18.5411
35.000000	48.802	42.8459
35.500000	49.391	62.8025
36.000000	49.788	80.4932
36.500000	50.092	97.3494
37.000000	50.417	113.3052
37.500000	50.738	127.4551
38.200001	50.945	143.3269
38.700001	50.814	152.1808
39.500000	50.159	162.5626
40.000000	49.539	166.0959
40.599998	48.664	166.3982
41.200001	47.804	161.8937
41.799999	47.232	153.0483
42.500000	47.180	139.3772
43.099998	47.465	127.6619
43.700001	47.698	118.9144
44.400002	47.754	114.9275
45.000000	47.763	116.7075
45.500000	47.868	120.2054
46.200001	48.148	125.3679
46.799999	48.396	128.5286
47.500000	48.625	130.5221
48.200001	48.860	131.2334
48.700001	49.099	131.1881
49.400002	49.557	130.3905
50.000000	49.992	129.0840
50.799999	50.494	127.0833
51.500000	50.841	125.9283
52.200001	51.186	125.4507
53.000000	51.623	124.5669
53.799999	52.007	122.1626
54.500000	52.258	119.0128
55.200001	52.489	115.4122
56.000000	52.762	111.1659
57.000000	53.087	106.8573
58.000000	53.401	104.6342
59.000000	53.567	104.1573
60.000000	53.522	105.6693
60.799999	53.508	107.6428
61.500000	53.580	108.6460
62.200001	53.685	108.2518
63.000000	53.782	106.2081
64.000000	53.875	102.5632
65.000000	54.063	99.2062
66.000000	54.378	96.4382
67.000000	54.651	94.0367
68.000000	54.732	92.2028
69.000000	54.642	91.1404
70.000000	54.528	90.3772
71.000000	54.524	89.0144
72.000000	54.653	86.6178
73.000000	54.858	83.5549
74.000000	55.074	80.6875
75.000000	55.281	78.7563
76.199997	55.546	77.7576
77.500000	55.845	77.1559
78.800003	56.060	76.1615
80.000000	56.209	74.8999
81.199997	56.322	72.9353
82.500000	56.313	70.2383
83.800003	56.211	67.8134
85.000000	56.167	65.8339
86.199997	56.220	63.7981
87.500000	56.347	61.6541
88.500000	56.460	60.4071
90.000000	56.647	59.3478
91.199997	56.769	58.5692
92.500000	56.819	57.3452
93.800003	56.826	55.6156
95.000000	56.846	53.6057
96.199997	56.898	51.4841
97.500000	56.968	49.4237
98.800003	57.001	47.8868
100.000000	56.979	46.8900
101.500000	56.895	45.7469
103.000000	56.807	44.1426
104.400002	56.770	42.0105
106.000000	56.785	39.3051
107.500000	56.851	37.2427
109.000000	56.967	35.7360
110.599998	57.084	34.1361
112.000000	57.099	32.5723
113.800003	57.007	30.7271
115.000000	56.920	29.6588
117.199997	56.754	28.1915
118.000000	56.715	27.8835
120.599998	56.755	26.8560
122.000000	56.834	25.7523
124.099998	56.905	23.4377
125.000000	56.904	22.4640
126.500000	56.880	21.2224
128.000000	56.846	20.5317
131.500000	56.639	20.3204
132.000000	56.587	20.3739
134.000000	56.362	20.4637
136.000000	56.133	19.9851
138.000000	55.885	19.0490
140.000000	55.635	18.3412
143.000000	55.493	18.3188
145.000000	55.600	18.3424
147.500000	55.740	17.5618
150.000000	55.684	15.6010
152.500000	55.440	12.9563
155.000000	55.167	11.3743
157.500000	55.075	11.9897
160.000000	55.134	13.4977
162.500000	55.161	14.3965
165.000000	55.083	14.0740
167.500000	54.943	13.2141
170.000000	54.890	12.6956
172.500000	54.969	12.4572
175.000000	55.059	12.3916
177.500000	55.065	12.5249
180.000000	55.019	12.5063
182.500000	55.034	12.0077
185.000000	55.169	11.1860
187.500000	55.337	10.5884
190.000000	55.428	10.4504
192.500000	55.421	10.4342
195.000000	55.374	10.2947
197.500000	55.372	10.2268
200.000000	55.455	10.4410
203.000000	55.634	10.8973
206.000000	55.835	10.9414
209.000000	55.977	10.3162
212.000000	56.029	9.6929
214.000000	56.052	9.6002
218.000000	56.176	9.8501
220.000000	56.276	9.9263
224.000000	56.497	9.8505
227.000000	56.632	9.6981
230.000000	56.726	9.4637
233.000000	56.824	9.1389
236.000000	56.964	8.7214
240.000000	57.146	7.9209
243.000000	57.230	7.3618
247.000000	57.296	6.9329
250.000000	57.347	6.5767
254.000000	57.481	5.6998
258.000000	57.692	4.6355
262.000000	57.892	3.6915
265.000000	58.000	3.0374
269.000000	58.103	2.2295
272.000000	58.168	1.6931
276.000000	58.257	0.9298
280.000000	58.379	-0.1311
285.000000	58.612	-1.8091
290.000000	58.835	-3.3599
295.000000	58.976	-4.3351
300.000000	59.117	-5.1071
304.000000	59.266	-5.9878
307.000000	59.394	-6.8682
311.000000	59.569	-8.2097
315.000000	59.742	-9.5677
320.000000	59.957	-11.0242
325.000000	60.173	-12.2456
330.000000	60.379	-13.5684
335.000000	60.538	-14.8807
340.000000	60.660	-16.0659
345.000000	60.762	-17.2096
350.000000	60.853	-18.2896
355.000000	60.948	-19.2488
360.000000	61.077	-20.2236
365.000000	61.260	-21.4088
370.000000	61.462	-22.6818
375.000000	61.631	-23.8987
382.000000	61.755	-25.6832
387.000000	61.760	-27.1147
395.000000	61.784	-29.3866
400.000000	61.872	-30.7300
406.000000	62.005	-32.5116
412.000000	62.140	-34.5485
418.000000	62.283	-36.7615
425.000000	62.476	-39.3936
431.000000	62.681	-41.3605
437.000000	62.880	-43.0361
444.000000	63.042	-44.9484
450.000000	63.134	-46.5587
455.000000	63.206	-47.7385
462.000000	63.311	-49.0997
468.000000	63.395	-50.2208
475.000000	63.486	-51.7844
482.000000	63.567	-53.5001
487.000000	63.616	-54.6586
494.000000	63.681	-56.2007
500.000000	63.754	-57.5999
508.000000	63.891	-59.6399
515.000000	64.006	-61.4236
522.000000	64.113	-63.0024
530.000000	64.267	-64.5297
538.000000	64.458	-66.0062
545.000000	64.622	-67.4672
552.000000	64.765	-69.1028
560.000000	64.913	-71.0765
570.000000	65.123	-73.5388
580.000000	65.371	-75.9592
590.000000	65.583	-78.3488
600.000000	65.712	-80.6971
608.000000	65.802	-82.5298
615.000000	65.903	-84.1775
622.000000	66.020	-85.8857
630.000000	66.155	-87.8011
640.000000	66.328	-90.0549
650.000000	66.506	-92.2972
660.000000	66.687	-94.5692
670.000000	66.876	-96.8607
680.000000	67.067	-99.2782
690.000000	67.259	-101.6921
700.000000	67.430	-103.9988
710.000000	67.568	-106.3916
720.000000	67.708	-108.9763
730.000000	67.869	-111.6847
740.000000	68.045	-114.4390
750.000000	68.223	-117.1566
762.000000	68.439	-120.3699
775.000000	68.697	-123.8071
788.000000	68.973	-127.1211
800.000000	69.180	-130.1781
812.000000	69.328	-133.2509
825.000000	69.494	-136.4329
838.000000	69.690	-139.4039
850.000000	69.864	-142.1425
862.000000	70.022	-145.1313
875.000000	70.182	-148.6274
885.000000	70.297	-151.2926
900.000000	70.444	-155.1625
912.000000	70.563	-158.1558
925.000000	70.709	-161.3348
938.000000	70.843	-164.5844
950.000000	70.947	-167.6682
962.000000	71.055	-170.7740
975.000000	71.191	-174.0607
988.000000	71.330	-177.1871
1000.000000	71.440	-179.9663
1015.000000	71.544	176.5748
1030.000000	71.633	173.0601
1044.000000	71.740	169.7395
1060.000000	71.905	165.9941
1075.000000	72.076	162.5734
1090.000000	72.246	159.2222
1106.000000	72.426	155.6768
1120.000000	72.583	152.5247
1138.000000	72.779	148.3719
1150.000000	72.900	145.5741
1172.000000	73.107	140.4592
1180.000000	73.183	138.5916
1206.000000	73.448	132.4177
1220.000000	73.584	128.9604
1241.000000	73.767	123.6414
1250.000000	73.838	121.3687
1265.000000	73.952	117.6088
1280.000000	74.060	113.8046
1315.000000	74.252	104.4493
1320.000000	74.267	103.0782
1340.000000	74.293	97.6017
1360.000000	74.258	92.1686
1380.000000	74.171	86.7476
1400.000000	74.049	81.3888
1430.000000	73.834	73.6234
1450.000000	73.684	68.6011
1475.000000	73.492	62.4229
1500.000000	73.289	56.4006
1525.000000	73.087	50.6869
1550.000000	72.896	45.4438
1575.000000	72.718	40.6593
1600.000000	72.552	36.2007
1625.000000	72.397	31.9980
1650.000000	72.261	28.0267
1675.000000	72.147	24.1399
1700.000000	72.044	20.1638
1725.000000	71.952	16.0974
1750.000000	71.874	12.0605
1775.000000	71.820	8.1226
1800.000000	71.798	4.2775
1825.000000	71.809	0.5004
1850.000000	71.850	-3.2571
1875.000000	71.919	-7.0209
1900.000000	72.012	-10.7944
1925.000000	72.121	-14.5751
1950.000000	72.234	-18.3607
1975.000000	72.353	-22.1455
2000.000000	72.494	-25.9022
2030.000000	72.704	-30.3867
2060.000000	72.938	-35.0500
2090.000000	73.170	-40.1797
2120.000000	73.399	-45.7836
2140.000000	73.552	-49.6770
2180.000000	73.850	-57.6362
2200.000000	73.984	-61.6724
2240.000000	74.217	-69.8768
2270.000000	74.371	-76.1321
2300.000000	74.519	-82.4335
2330.000000	74.660	-88.7023
2360.000000	74.785	-94.8296
2400.000000	74.925	-102.7104
2430.000000	75.006	-108.4873
2470.000000	75.079	-116.1672
2500.000000	75.113	-121.8972
2540.000000	75.160	-129.3401
2580.000000	75.217	-136.5405
2620.000000	75.267	-143.7485
2650.000000	75.290	-149.2598
2690.000000	75.308	-156.7117
2720.000000	75.315	-162.3534
2760.000000	75.315	-169.9044
2800.000000	75.299	-177.3723
2850.000000	75.259	173.4919
2900.000000	75.214	164.5308
2950.000000	75.169	155.5776
3000.000000	75.112	146.5190
3040.000000	75.053	139.2949
3070.000000	75.001	133.9178
3110.000000	74.936	126.7964
3150.000000	74.897	119.7045
3200.000000	74.873	110.7911
3250.000000	74.841	101.7953
3300.000000	74.798	92.8494
3350.000000	74.755	83.9788
3400.000000	74.692	74.9814
3450.000000	74.607	65.6969
3500.000000	74.514	56.1820
3550.000000	74.424	46.5839
3600.000000	74.349	37.0068
3650.000000	74.279	27.4087
3700.000000	74.199	17.6917
3750.000000	74.111	7.8931
3820.000000	73.997	-5.6854
3870.000000	73.918	-15.1620
3950.000000	73.771	-30.0653
4000.000000	73.661	-39.3484
4060.000000	73.492	-50.4891
4120.000000	73.262	-61.4785
4180.000000	72.986	-72.1445
4250.000000	72.646	-84.1406
4310.000000	72.355	-94.2560
4370.000000	72.069	-104.4434
4440.000000	71.749	-116.4551
4500.000000	71.496	-126.8334
4550.000000	71.300	-135.5068
4620.000000	71.034	-147.5781
4680.000000	70.795	-157.7482
4750.000000	70.493	-169.2401
4820.000000	70.180	179.9262
4870.000000	69.980	172.6674
4940.000000	69.800	162.9302
5000.000000	69.756	154.4030
5080.000000	69.734	141.9487
5150.000000	69.629	130.1262
5220.000000	69.422	117.9197
5300.000000	69.097	103.8372
5380.000000	68.727	89.8104
5450.000000	68.398	77.7610
5520.000000	68.068	66.0696
5600.000000	67.704	53.2272
5700.000000	67.301	37.7567
5800.000000	66.978	22.6404
5900.000000	66.739	7.7000
6000.000000	66.573	-7.2300
6080.000000	66.477	-19.1586
6150.000000	66.396	-29.5771
6220.000000	66.304	-39.9918
6300.000000	66.188	-51.8907
6400.000000	66.050	-66.8141
6500.000000	65.949	-81.8675
6600.000000	65.892	-96.9980
6700.000000	65.874	-112.0187
6800.000000	65.886	-126.8405
6900.000000	65.924	-141.6776
7000.000000	65.981	-156.6417
7100.000000	66.058	-171.5662
7200.000000	66.162	173.8772
7300.000000	66.320	159.9220
7400.000000	66.565	146.3416
7500.000000	66.910	132.6042
7620.000000	67.443	115.5182
7750.000000	68.116	96.3185
7880.000000	68.832	76.2544
8000.000000	69.442	56.4217
8120.000000	69.893	34.9184
8250.000000	70.124	9.4810
8380.000000	70.045	-18.1487
8500.000000	69.669	-45.0951
8620.000000	68.990	-72.3998
8750.000000	67.945	-100.9149
8850.000000	66.980	-121.3218
9000.000000	65.392	-148.9734
9120.000000	64.079	-168.8656
9250.000000	62.671	171.1026
9380.000000	61.314	152.2014
9500.000000	60.125	135.7444
9620.000000	59.010	120.2572
9750.000000	57.898	104.3102
9880.000000	56.891	88.9403
10000.000000	56.065	75.1291
10150.000000	55.169	57.5746
10300.000000	54.410	36.8438
10440.000000	53.812	7.7404
10600.000000	53.202	-58.2885
10750.000000	52.656	170.1078
10900.000000	52.218	-59.8677
11060.000000	52.020	-19.2859
11200.000000	52.062	65.1975
11380.000000	52.159	105.9573
11500.000000	52.141	-96.7771
11720.000000	52.026	-96.5850
11800.000000	52.011	124.2720
12060.000000	52.093	-108.6201
12200.000000	52.127	-166.0415
12410.000000	52.109	-178.3779
12500.000000	52.078	174.0010
12650.000000	51.989	176.7021
12800.000000	51.842	41.4902
13150.000000	51.363	-129.1182
13200.000000	51.283	-129.6006
13400.000000	50.883	148.3877
13600.000000	50.365	-80.8965
13800.000000	49.916	-120.2168
14000.000000	49.700	-2.6670
14300.000000	49.759	-45.4336
14500.000000	49.908	-53.7148
14750.000000	50.170	-161.1133
15000.000000	50.521	144.9492
15250.000000	50.907	-149.5840
15500.000000	51.434	20.6641
15750.000000	52.077	-64.7812
16000.000000	52.625	-110.4570
16250.000000	52.873	99.4492
16500.000000	52.701	130.3516
16750.000000	52.161	-69.8359
17000.000000	51.532	100.6211
17250.000000	51.127	-146.2070
17500.000000	51.058	-53.4297
17750.000000	51.274	-26.7344
18000.000000	51.658	-163.2656
18250.000000	52.110	-174.6094
18500.000000	52.626	-60.7109
18750.000000	53.245	56.7031
19000.000000	53.936	138.2188
19250.000000	54.589	-85.9531
19500.000000	55.054	9.3750
19750.000000	55.235	-158.9531
