* Measurement data measured by REW V5.31.1
* Source: Microphone (4- USB Audio Device), MICROPHONE (Master Volume), R, volume: 0.900
* Format: 256k Log Swept Sine, 1 sweep at -12.0 dBFS with no timing reference
* Dated: 12-Jun-2024 14:19:32
* REW Settings:
*  C-weighting compensation: Off
*  Target level: 75.0 dB
* Note: 
* Measurement: Vivo TWS4 L
* Smoothing: 1/12 octave
* Frequency Step: 1/48 octave
* Start Frequency: 20.300 Hz
*
* Freq(Hz)	SPL(dB)	Phase(degrees)
20.299999	74.352	111.9264
20.600000	74.497	110.8978
20.900000	74.676	109.6239
21.200001	74.863	108.2718
21.400000	74.988	107.3560
21.799999	75.235	105.5072
22.000000	75.357	104.5755
22.400000	75.598	102.7008
22.700001	75.777	101.2895
23.000000	75.955	99.8781
23.299999	76.130	98.4684
23.600000	76.302	97.0596
24.000000	76.524	95.1772
24.299999	76.685	93.7584
24.700001	76.889	91.8546
25.000000	77.034	90.4201
25.400000	77.217	88.5060
25.799999	77.391	86.6001
26.200001	77.558	84.7096
26.500000	77.680	83.3028
26.900000	77.840	81.4402
27.200001	77.955	80.0512
27.600000	78.102	78.2087
28.000000	78.240	76.3781
28.500000	78.397	74.1100
29.000000	78.539	71.8663
29.500000	78.669	69.6446
30.000000	78.789	67.4413
30.400000	78.880	65.6931
30.700001	78.943	64.3934
31.100000	79.022	62.6821
31.500000	79.093	61.0025
32.000000	79.172	58.9553
32.500000	79.241	56.9657
33.000000	79.303	55.0253
33.500000	79.358	53.1270
34.000000	79.406	51.2719
34.500000	79.449	49.4670
35.000000	79.487	47.7141
35.500000	79.521	46.0037
36.000000	79.551	44.3204
36.500000	79.574	42.6561
37.000000	79.590	41.0166
37.500000	79.600	39.4175
38.200001	79.609	37.2708
38.700001	79.614	35.8069
39.500000	79.619	33.5691
40.000000	79.617	32.2249
40.599998	79.610	30.6588
41.200001	79.598	29.1383
41.799999	79.585	27.6529
42.500000	79.573	25.9393
43.099998	79.562	24.4717
43.700001	79.547	23.0164
44.400002	79.522	21.3750
45.000000	79.498	20.0378
45.500000	79.478	18.9665
46.200001	79.449	17.5131
46.799999	79.422	16.3061
47.500000	79.386	14.9479
48.200001	79.346	13.6400
48.700001	79.316	12.7328
49.400002	79.275	11.4943
50.000000	79.242	10.4477
50.799999	79.199	9.0480
51.500000	79.160	7.8275
52.200001	79.119	6.6413
53.000000	79.073	5.3416
53.799999	79.027	4.0890
54.500000	78.984	3.0225
55.200001	78.939	1.9772
56.000000	78.886	0.8038
57.000000	78.821	-0.6193
58.000000	78.758	-1.9719
59.000000	78.696	-3.2576
60.000000	78.637	-4.5165
60.799999	78.590	-5.5222
61.500000	78.549	-6.3989
62.200001	78.506	-7.2672
63.000000	78.457	-8.2409
64.000000	78.396	-9.4254
65.000000	78.340	-10.5866
66.000000	78.287	-11.7309
67.000000	78.236	-12.8464
68.000000	78.186	-13.9093
69.000000	78.135	-14.9080
70.000000	78.087	-15.8722
71.000000	78.038	-16.8449
72.000000	77.987	-17.8395
73.000000	77.933	-18.8430
74.000000	77.879	-19.8361
75.000000	77.827	-20.8064
76.199997	77.768	-21.9350
77.500000	77.704	-23.1058
78.800003	77.638	-24.2411
80.000000	77.580	-25.2803
81.199997	77.528	-26.3109
82.500000	77.474	-27.4002
83.800003	77.418	-28.4530
85.000000	77.362	-29.3886
86.199997	77.304	-30.2923
87.500000	77.237	-31.2550
88.500000	77.186	-31.9931
90.000000	77.114	-33.0882
91.199997	77.060	-33.9389
92.500000	77.002	-34.8349
93.800003	76.941	-35.7195
95.000000	76.886	-36.5303
96.199997	76.833	-37.3390
97.500000	76.776	-38.2178
98.800003	76.718	-39.0942
100.000000	76.664	-39.8983
101.500000	76.600	-40.9103
103.000000	76.539	-41.9101
104.400002	76.479	-42.7886
106.000000	76.405	-43.7253
107.500000	76.336	-44.5979
109.000000	76.270	-45.4924
110.599998	76.202	-46.4448
112.000000	76.146	-47.2689
113.800003	76.076	-48.3131
115.000000	76.030	-48.9852
117.199997	75.939	-50.1628
118.000000	75.905	-50.5840
120.599998	75.793	-51.9560
122.000000	75.733	-52.6829
124.099998	75.647	-53.7461
125.000000	75.611	-54.1957
126.500000	75.551	-54.9334
128.000000	75.489	-55.6553
131.500000	75.342	-57.3690
132.000000	75.322	-57.6178
134.000000	75.242	-58.5928
136.000000	75.170	-59.5137
138.000000	75.105	-60.4000
140.000000	75.039	-61.2703
143.000000	74.933	-62.5493
145.000000	74.860	-63.3639
147.500000	74.771	-64.3383
150.000000	74.683	-65.3129
152.500000	74.594	-66.3082
155.000000	74.505	-67.2730
157.500000	74.418	-68.1733
160.000000	74.331	-69.0341
162.500000	74.246	-69.9018
165.000000	74.163	-70.7993
167.500000	74.076	-71.7060
170.000000	73.985	-72.6046
172.500000	73.891	-73.4825
175.000000	73.798	-74.3248
177.500000	73.710	-75.1411
180.000000	73.626	-75.9611
182.500000	73.544	-76.7848
185.000000	73.461	-77.5926
187.500000	73.376	-78.3778
190.000000	73.295	-79.1497
192.500000	73.218	-79.8994
195.000000	73.144	-80.6276
197.500000	73.071	-81.3450
200.000000	73.003	-82.0601
203.000000	72.933	-82.9392
206.000000	72.869	-83.8337
209.000000	72.803	-84.7068
212.000000	72.734	-85.5624
214.000000	72.689	-86.1407
218.000000	72.604	-87.3363
220.000000	72.563	-87.9471
224.000000	72.479	-89.1574
227.000000	72.416	-90.0359
230.000000	72.355	-90.8860
233.000000	72.295	-91.7072
236.000000	72.232	-92.4919
240.000000	72.143	-93.4475
243.000000	72.074	-94.0931
247.000000	71.982	-94.8671
250.000000	71.916	-95.3847
254.000000	71.843	-96.0356
258.000000	71.788	-96.7019
262.000000	71.741	-97.4203
265.000000	71.708	-97.9991
269.000000	71.666	-98.8181
272.000000	71.638	-99.4521
276.000000	71.599	-100.2917
280.000000	71.559	-101.1171
285.000000	71.513	-102.1249
290.000000	71.470	-103.1254
295.000000	71.423	-104.1530
300.000000	71.373	-105.1922
304.000000	71.336	-106.0134
307.000000	71.311	-106.6311
311.000000	71.279	-107.4614
315.000000	71.247	-108.2831
320.000000	71.207	-109.2768
325.000000	71.172	-110.2332
330.000000	71.141	-111.1501
335.000000	71.114	-112.0180
340.000000	71.089	-112.8394
345.000000	71.067	-113.6412
350.000000	71.045	-114.4424
355.000000	71.022	-115.2532
360.000000	71.002	-116.0526
365.000000	70.987	-116.8272
370.000000	70.973	-117.5985
375.000000	70.956	-118.3751
382.000000	70.930	-119.4744
387.000000	70.912	-120.2623
395.000000	70.886	-121.5029
400.000000	70.871	-122.2959
406.000000	70.853	-123.2992
412.000000	70.834	-124.3192
418.000000	70.814	-125.3055
425.000000	70.789	-126.3768
431.000000	70.768	-127.2462
437.000000	70.751	-128.1197
444.000000	70.738	-129.1558
450.000000	70.733	-130.0259
455.000000	70.734	-130.7457
462.000000	70.739	-131.8012
468.000000	70.742	-132.7743
475.000000	70.742	-133.9621
482.000000	70.734	-135.1672
487.000000	70.723	-136.0339
494.000000	70.705	-137.2656
500.000000	70.690	-138.3312
508.000000	70.671	-139.7282
515.000000	70.652	-140.9223
522.000000	70.631	-142.1090
530.000000	70.605	-143.4719
538.000000	70.575	-144.8408
545.000000	70.550	-146.0113
552.000000	70.527	-147.1250
560.000000	70.501	-148.3260
570.000000	70.472	-149.7623
580.000000	70.450	-151.1673
590.000000	70.431	-152.5479
600.000000	70.408	-153.9070
608.000000	70.383	-154.9550
615.000000	70.361	-155.8185
622.000000	70.340	-156.6309
630.000000	70.321	-157.5133
640.000000	70.309	-158.5663
650.000000	70.305	-159.5702
660.000000	70.300	-160.5325
670.000000	70.290	-161.4865
680.000000	70.281	-162.4682
690.000000	70.272	-163.4804
700.000000	70.265	-164.5171
710.000000	70.264	-165.5993
720.000000	70.270	-166.7532
730.000000	70.281	-167.9642
740.000000	70.295	-169.1833
750.000000	70.308	-170.3757
762.000000	70.322	-171.7649
775.000000	70.338	-173.2179
788.000000	70.360	-174.6230
800.000000	70.385	-175.8732
812.000000	70.416	-177.1219
825.000000	70.458	-178.5249
838.000000	70.507	-179.9396
850.000000	70.556	178.7729
862.000000	70.605	177.4784
875.000000	70.662	176.0540
885.000000	70.706	174.9355
900.000000	70.775	173.1880
912.000000	70.837	171.7037
925.000000	70.910	169.9957
938.000000	70.982	168.1871
950.000000	71.048	166.4394
962.000000	71.118	164.6374
975.000000	71.202	162.6623
988.000000	71.293	160.6925
1000.000000	71.377	158.8679
1015.000000	71.482	156.5311
1030.000000	71.585	154.1027
1044.000000	71.680	151.7523
1060.000000	71.789	148.9709
1075.000000	71.892	146.2750
1090.000000	71.996	143.4745
1106.000000	72.109	140.3471
1120.000000	72.212	137.5269
1138.000000	72.351	133.8637
1150.000000	72.444	131.4019
1172.000000	72.603	126.8130
1180.000000	72.656	125.1240
1206.000000	72.820	119.6598
1220.000000	72.908	116.7640
1241.000000	73.029	112.4313
1250.000000	73.075	110.5523
1265.000000	73.143	107.3645
1280.000000	73.203	104.1094
1315.000000	73.329	96.4001
1320.000000	73.346	95.3045
1340.000000	73.413	90.9883
1360.000000	73.486	86.8090
1380.000000	73.573	82.7180
1400.000000	73.674	78.5683
1430.000000	73.836	71.9400
1450.000000	73.951	67.1897
1475.000000	74.101	60.9840
1500.000000	74.243	54.6010
1525.000000	74.372	48.1638
1550.000000	74.499	41.8448
1575.000000	74.623	35.7491
1600.000000	74.736	29.8883
1625.000000	74.836	24.2275
1650.000000	74.934	18.7842
1675.000000	75.032	13.6373
1700.000000	75.131	8.7997
1725.000000	75.231	4.2188
1750.000000	75.329	-0.1318
1775.000000	75.428	-4.1985
1800.000000	75.535	-7.9257
1825.000000	75.650	-11.3417
1850.000000	75.767	-14.5431
1875.000000	75.879	-17.6076
1900.000000	75.989	-20.5471
1925.000000	76.103	-23.3326
1950.000000	76.223	-25.9612
1975.000000	76.348	-28.4883
2000.000000	76.474	-31.0229
2030.000000	76.621	-34.1707
2060.000000	76.771	-37.3513
2090.000000	76.931	-40.3241
2120.000000	77.100	-42.8959
2140.000000	77.216	-44.3865
2180.000000	77.446	-47.0768
2200.000000	77.557	-48.4061
2240.000000	77.775	-51.1710
2270.000000	77.939	-53.3162
2300.000000	78.105	-55.4679
2330.000000	78.273	-57.5706
2360.000000	78.437	-59.6198
2400.000000	78.641	-62.3282
2430.000000	78.786	-64.3110
2470.000000	78.974	-66.7389
2500.000000	79.109	-68.3583
2540.000000	79.279	-70.3215
2580.000000	79.436	-72.1435
2620.000000	79.578	-73.8331
2650.000000	79.674	-75.0120
2690.000000	79.784	-76.4448
2720.000000	79.853	-77.3722
2760.000000	79.931	-78.3325
2800.000000	79.993	-78.9525
2850.000000	80.046	-79.4013
2900.000000	80.066	-79.7492
2950.000000	80.063	-80.2245
3000.000000	80.035	-80.9191
3040.000000	79.994	-81.5673
3070.000000	79.951	-82.0710
3110.000000	79.878	-82.7484
3150.000000	79.786	-83.4091
3200.000000	79.650	-84.1881
3250.000000	79.495	-84.8322
3300.000000	79.332	-85.1815
3350.000000	79.158	-85.2701
3400.000000	78.966	-85.2710
3450.000000	78.761	-85.1876
3500.000000	78.553	-84.8625
3550.000000	78.346	-84.2517
3600.000000	78.134	-83.5015
3650.000000	77.913	-82.7491
3700.000000	77.688	-81.9680
3750.000000	77.466	-81.0822
3820.000000	77.163	-79.7319
3870.000000	76.952	-78.7347
3950.000000	76.630	-76.8787
4000.000000	76.448	-75.4122
4060.000000	76.258	-73.3362
4120.000000	76.098	-71.0840
4180.000000	75.972	-68.7495
4250.000000	75.881	-65.7914
4310.000000	75.852	-62.9751
4370.000000	75.863	-59.9926
4440.000000	75.920	-56.4838
4500.000000	76.006	-53.4127
4550.000000	76.107	-50.7413
4620.000000	76.288	-46.9880
4680.000000	76.470	-44.0732
4750.000000	76.709	-41.3154
4820.000000	76.973	-39.3677
4870.000000	77.174	-38.4329
4940.000000	77.468	-37.5554
5000.000000	77.727	-37.0063
5080.000000	78.073	-36.4185
5150.000000	78.361	-36.1050
5220.000000	78.623	-36.0814
5300.000000	78.885	-36.3674
5380.000000	79.097	-36.8417
5450.000000	79.234	-37.2532
5520.000000	79.319	-37.4821
5600.000000	79.352	-37.4102
5700.000000	79.305	-36.8919
5800.000000	79.210	-36.3130
5900.000000	79.056	-36.2200
6000.000000	78.778	-36.1198
6080.000000	78.463	-35.4139
6150.000000	78.140	-34.0823
6220.000000	77.798	-31.9352
6300.000000	77.427	-28.3701
6400.000000	77.081	-22.5137
6500.000000	76.888	-16.1126
6600.000000	76.752	-9.8480
6700.000000	76.638	-3.7358
6800.000000	76.581	2.2383
6900.000000	76.607	8.0122
7000.000000	76.721	13.4828
7100.000000	76.924	18.7678
7200.000000	77.219	24.1624
7300.000000	77.609	29.7058
7400.000000	78.085	34.9801
7500.000000	78.639	39.4627
7620.000000	79.384	43.3597
7750.000000	80.235	45.5786
7880.000000	81.036	45.6511
8000.000000	81.611	43.8558
8120.000000	81.915	40.6478
8250.000000	81.833	36.2726
8380.000000	81.293	32.1273
8500.000000	80.448	29.7255
8620.000000	79.368	29.3819
8750.000000	78.055	31.4200
8850.000000	77.014	34.4319
9000.000000	75.492	40.8360
9120.000000	74.360	47.6753
9250.000000	73.251	57.0118
9380.000000	72.263	68.2294
9500.000000	71.451	80.0475
9620.000000	70.730	93.0835
9750.000000	70.045	108.0085
9880.000000	69.443	122.7330
10000.000000	68.945	135.4416
10150.000000	68.396	150.1853
10300.000000	67.930	164.2556
10440.000000	67.567	177.0326
10600.000000	67.234	-169.0334
10750.000000	66.996	-157.1894
10900.000000	66.832	-146.7014
11060.000000	66.743	-136.6624
11200.000000	66.735	-128.4286
11380.000000	66.809	-117.9981
11500.000000	66.907	-111.0055
11720.000000	67.181	-98.2885
11800.000000	67.312	-93.7276
12060.000000	67.868	-78.7014
12200.000000	68.262	-69.7683
12410.000000	69.001	-54.4078
12500.000000	69.375	-47.3987
12650.000000	70.073	-35.9885
12800.000000	70.857	-25.7538
13150.000000	72.842	-9.7790
13200.000000	73.114	-8.5078
13400.000000	74.065	-5.9673
13600.000000	74.657	-7.2264
13800.000000	74.753	-11.0903
14000.000000	74.319	-15.5037
14300.000000	72.847	-18.3478
14500.000000	71.545	-16.2110
14750.000000	69.852	-10.0206
15000.000000	68.332	-1.6187
15250.000000	67.155	8.2106
15500.000000	66.400	18.8434
15750.000000	66.057	28.6802
16000.000000	66.044	36.1747
16250.000000	66.229	40.7390
16500.000000	66.413	42.7017
16750.000000	66.367	43.2787
17000.000000	65.917	44.3277
17250.000000	65.017	47.6220
17500.000000	63.750	54.3032
17750.000000	62.268	64.8507
18000.000000	60.712	78.4399
18250.000000	59.188	93.1488
18500.000000	57.765	107.5950
18750.000000	56.464	121.4360
19000.000000	55.275	135.0267
19250.000000	54.203	148.7500
19500.000000	53.283	162.5833
19750.000000	52.590	175.3051
20000.000000	52.215	-176.7384
