* Measurement data measured by REW V5.31.1
* Source: Microphone (4- USB Audio Device), MICROPHONE (Master Volume), R, volume: 0.900
* Format: 256k Log Swept Sine, 1 sweep at -12.0 dBFS with no timing reference
* Dated: 12-Jun-2024 14:16:00
* REW Settings:
*  C-weighting compensation: Off
*  Target level: 75.0 dB
* Note: 
* Measurement: Vivo TWS4 IAB R
* Smoothing: 1/12 octave
* Frequency Step: 1/48 octave
* Start Frequency: 20.300 Hz
*
* Freq(Hz)	SPL(dB)	Phase(degrees)
20.299999	75.170	109.3219
20.600000	75.284	108.4950
20.900000	75.432	107.4671
21.200001	75.595	106.3647
21.400000	75.707	105.6090
21.799999	75.931	104.0658
22.000000	76.042	103.2852
22.400000	76.256	101.7273
22.700001	76.410	100.5765
23.000000	76.559	99.4472
23.299999	76.703	98.3370
23.600000	76.842	97.2391
24.000000	77.023	95.7822
24.299999	77.153	94.6915
24.700001	77.321	93.2453
25.000000	77.443	92.1733
25.400000	77.603	90.7668
25.799999	77.761	89.3832
26.200001	77.917	88.0120
26.500000	78.030	86.9857
26.900000	78.176	85.6183
27.200001	78.279	84.5966
27.600000	78.411	83.2475
28.000000	78.536	81.9216
28.500000	78.688	80.3033
29.000000	78.839	78.7258
29.500000	78.988	77.1772
30.000000	79.134	75.6418
30.400000	79.247	74.4158
30.700001	79.327	73.4979
31.100000	79.430	72.2802
31.500000	79.529	71.0747
32.000000	79.649	69.5855
32.500000	79.768	68.1030
33.000000	79.882	66.6111
33.500000	79.986	65.1101
34.000000	80.077	63.6204
34.500000	80.158	62.1669
35.000000	80.238	60.7615
35.500000	80.327	59.3973
36.000000	80.428	58.0529
36.500000	80.539	56.7024
37.000000	80.650	55.3290
37.500000	80.748	53.9370
38.200001	80.848	52.0018
38.700001	80.900	50.6537
39.500000	80.977	48.5277
40.000000	81.034	47.1873
40.599998	81.111	45.5714
41.200001	81.190	43.9872
41.799999	81.263	42.4651
42.500000	81.332	40.7640
43.099998	81.376	39.3446
43.700001	81.412	37.9312
44.400002	81.451	36.2649
45.000000	81.482	34.8371
45.500000	81.503	33.6763
46.200001	81.529	32.1204
46.799999	81.548	30.8289
47.500000	81.567	29.3233
48.200001	81.579	27.8097
48.700001	81.585	26.7403
49.400002	81.589	25.2825
50.000000	81.590	24.0780
50.799999	81.584	22.5334
51.500000	81.575	21.2243
52.200001	81.565	19.9399
53.000000	81.552	18.5039
53.799999	81.536	17.1108
54.500000	81.517	15.9232
55.200001	81.495	14.7609
56.000000	81.466	13.4715
57.000000	81.432	11.9228
58.000000	81.400	10.4141
59.000000	81.364	8.9193
60.000000	81.323	7.4626
60.799999	81.291	6.3490
61.500000	81.263	5.4120
62.200001	81.237	4.4955
63.000000	81.209	3.4537
64.000000	81.173	2.1487
65.000000	81.135	0.8614
66.000000	81.094	-0.3849
67.000000	81.053	-1.5938
68.000000	81.012	-2.7741
69.000000	80.973	-3.9251
70.000000	80.934	-5.0562
71.000000	80.893	-6.1770
72.000000	80.849	-7.2771
73.000000	80.802	-8.3389
74.000000	80.756	-9.3509
75.000000	80.714	-10.3176
76.199997	80.666	-11.4488
77.500000	80.612	-12.6745
78.800003	80.554	-13.9092
80.000000	80.499	-15.0602
81.199997	80.444	-16.2082
82.500000	80.388	-17.4122
83.800003	80.332	-18.5743
85.000000	80.277	-19.6297
86.199997	80.222	-20.6711
87.500000	80.163	-21.7735
88.500000	80.117	-22.6074
90.000000	80.049	-23.8499
91.199997	79.997	-24.8351
92.500000	79.944	-25.8742
93.800003	79.890	-26.8672
95.000000	79.841	-27.7515
96.199997	79.792	-28.6239
97.500000	79.737	-29.5625
98.800003	79.677	-30.5026
100.000000	79.620	-31.3832
101.500000	79.547	-32.4850
103.000000	79.479	-33.5516
104.400002	79.419	-34.5032
106.000000	79.349	-35.5436
107.500000	79.279	-36.5042
109.000000	79.205	-37.4769
110.599998	79.126	-38.5042
112.000000	79.057	-39.3646
113.800003	78.969	-40.4259
115.000000	78.913	-41.1243
117.199997	78.813	-42.3910
118.000000	78.777	-42.8498
120.599998	78.661	-44.3453
122.000000	78.598	-45.1197
124.099998	78.500	-46.2229
125.000000	78.456	-46.6809
126.500000	78.382	-47.4370
128.000000	78.307	-48.1973
131.500000	78.133	-49.9248
132.000000	78.108	-50.1593
134.000000	78.012	-51.0710
136.000000	77.921	-51.9661
138.000000	77.837	-52.8628
140.000000	77.756	-53.7355
143.000000	77.636	-54.9840
145.000000	77.553	-55.8190
147.500000	77.448	-56.8684
150.000000	77.343	-57.8749
152.500000	77.236	-58.8183
155.000000	77.126	-59.7383
157.500000	77.019	-60.6534
160.000000	76.920	-61.5370
162.500000	76.825	-62.3865
165.000000	76.731	-63.2303
167.500000	76.638	-64.0983
170.000000	76.548	-64.9578
172.500000	76.457	-65.7694
175.000000	76.364	-66.5490
177.500000	76.269	-67.3382
180.000000	76.177	-68.1552
182.500000	76.094	-68.9748
185.000000	76.018	-69.7660
187.500000	75.944	-70.5215
190.000000	75.872	-71.2510
192.500000	75.802	-71.9746
195.000000	75.735	-72.7073
197.500000	75.672	-73.4476
200.000000	75.612	-74.1709
203.000000	75.543	-75.0061
206.000000	75.475	-75.8200
209.000000	75.411	-76.6038
212.000000	75.354	-77.3423
214.000000	75.321	-77.8104
218.000000	75.266	-78.7322
220.000000	75.242	-79.2140
224.000000	75.193	-80.2379
227.000000	75.156	-81.0475
230.000000	75.121	-81.8806
233.000000	75.085	-82.7128
236.000000	75.045	-83.5376
240.000000	74.988	-84.6341
243.000000	74.942	-85.4303
247.000000	74.879	-86.4169
250.000000	74.834	-87.0998
254.000000	74.785	-87.9724
258.000000	74.753	-88.8535
262.000000	74.734	-89.7701
265.000000	74.723	-90.4925
269.000000	74.707	-91.5059
272.000000	74.694	-92.2935
276.000000	74.673	-93.3686
280.000000	74.649	-94.4514
285.000000	74.616	-95.8046
290.000000	74.581	-97.1780
295.000000	74.550	-98.5918
300.000000	74.525	-100.0346
304.000000	74.505	-101.1901
307.000000	74.487	-102.0490
311.000000	74.460	-103.1775
315.000000	74.429	-104.2921
320.000000	74.390	-105.6682
325.000000	74.353	-107.0023
330.000000	74.317	-108.2649
335.000000	74.285	-109.4807
340.000000	74.258	-110.6998
345.000000	74.229	-111.9199
350.000000	74.196	-113.1341
355.000000	74.162	-114.3473
360.000000	74.127	-115.5492
365.000000	74.092	-116.7328
370.000000	74.058	-117.8963
375.000000	74.028	-119.0312
382.000000	73.991	-120.5884
387.000000	73.960	-121.6794
395.000000	73.902	-123.4415
400.000000	73.865	-124.5973
406.000000	73.822	-125.9991
412.000000	73.779	-127.3816
418.000000	73.737	-128.7474
425.000000	73.687	-130.3226
431.000000	73.642	-131.6514
437.000000	73.597	-132.9605
444.000000	73.550	-134.4687
450.000000	73.516	-135.7707
455.000000	73.491	-136.8683
462.000000	73.458	-138.4381
468.000000	73.427	-139.8292
475.000000	73.384	-141.4854
482.000000	73.335	-143.1371
487.000000	73.299	-144.3019
494.000000	73.252	-145.9108
500.000000	73.211	-147.2702
508.000000	73.154	-149.0448
515.000000	73.102	-150.5455
522.000000	73.049	-151.9842
530.000000	72.992	-153.5630
538.000000	72.941	-155.1063
545.000000	72.901	-156.4494
552.000000	72.860	-157.8013
560.000000	72.808	-159.3595
570.000000	72.735	-161.3049
580.000000	72.661	-163.2484
590.000000	72.597	-165.2062
600.000000	72.543	-167.1590
608.000000	72.501	-168.6965
615.000000	72.466	-170.0334
622.000000	72.433	-171.3823
630.000000	72.398	-172.9414
640.000000	72.356	-174.8820
650.000000	72.319	-176.8091
660.000000	72.284	-178.7450
670.000000	72.249	179.3558
680.000000	72.212	177.5461
690.000000	72.177	175.8201
700.000000	72.151	174.1801
710.000000	72.141	172.6516
720.000000	72.143	171.2130
730.000000	72.152	169.7662
740.000000	72.162	168.2494
750.000000	72.169	166.6683
762.000000	72.172	164.7039
775.000000	72.178	162.4740
788.000000	72.193	160.1674
800.000000	72.210	158.0854
812.000000	72.230	156.0736
825.000000	72.262	153.9540
838.000000	72.307	151.9244
850.000000	72.356	150.1471
862.000000	72.413	148.4381
875.000000	72.485	146.6244
885.000000	72.548	145.2385
900.000000	72.650	143.1417
912.000000	72.735	141.4173
925.000000	72.830	139.4614
938.000000	72.930	137.3952
950.000000	73.025	135.4029
962.000000	73.119	133.3332
975.000000	73.222	130.9856
988.000000	73.330	128.5211
1000.000000	73.435	126.1643
1015.000000	73.571	123.1241
1030.000000	73.711	119.9861
1044.000000	73.847	116.9666
1060.000000	74.004	113.3854
1075.000000	74.155	109.9003
1090.000000	74.311	106.2974
1106.000000	74.484	102.3411
1120.000000	74.633	98.8465
1138.000000	74.824	94.3636
1150.000000	74.953	91.3690
1172.000000	75.193	85.8290
1180.000000	75.278	83.7848
1206.000000	75.532	76.9141
1220.000000	75.652	73.0483
1241.000000	75.813	67.1154
1250.000000	75.877	64.5640
1265.000000	75.975	60.3420
1280.000000	76.064	56.1762
1315.000000	76.240	46.6677
1320.000000	76.263	45.3243
1340.000000	76.347	39.9700
1360.000000	76.420	34.6437
1380.000000	76.487	29.3484
1400.000000	76.558	24.0972
1430.000000	76.683	16.3517
1450.000000	76.776	11.2638
1475.000000	76.900	4.9817
1500.000000	77.032	-1.2125
1525.000000	77.164	-7.3572
1550.000000	77.295	-13.4717
1575.000000	77.424	-19.4612
1600.000000	77.545	-25.2497
1625.000000	77.662	-30.8103
1650.000000	77.779	-36.1244
1675.000000	77.898	-41.2206
1700.000000	78.016	-46.1555
1725.000000	78.135	-50.9674
1750.000000	78.262	-55.6476
1775.000000	78.396	-60.1461
1800.000000	78.535	-64.4212
1825.000000	78.677	-68.4449
1850.000000	78.822	-72.2205
1875.000000	78.974	-75.7559
1900.000000	79.132	-79.0495
1925.000000	79.299	-82.0927
1950.000000	79.477	-84.9038
1975.000000	79.660	-87.5389
2000.000000	79.844	-90.0530
2030.000000	80.068	-92.9655
2060.000000	80.301	-95.8156
2090.000000	80.537	-98.7233
2120.000000	80.766	-101.8136
2140.000000	80.910	-104.0007
2180.000000	81.172	-108.5989
2200.000000	81.293	-110.9281
2240.000000	81.530	-115.4169
2270.000000	81.706	-118.5352
2300.000000	81.878	-121.4825
2330.000000	82.046	-124.3798
2360.000000	82.205	-127.3496
2400.000000	82.399	-131.5613
2430.000000	82.530	-134.9333
2470.000000	82.689	-139.6133
2500.000000	82.794	-143.1364
2540.000000	82.917	-147.6210
2580.000000	83.026	-151.6432
2620.000000	83.121	-155.1714
2650.000000	83.177	-157.6015
2690.000000	83.226	-160.7679
2720.000000	83.241	-163.1918
2760.000000	83.236	-166.5274
2800.000000	83.210	-169.9321
2850.000000	83.150	-174.1488
2900.000000	83.063	-178.1943
2950.000000	82.958	177.9685
3000.000000	82.846	174.4879
3040.000000	82.746	172.0092
3070.000000	82.663	170.2958
3110.000000	82.539	168.1327
3150.000000	82.402	166.0509
3200.000000	82.213	163.6121
3250.000000	82.017	161.4933
3300.000000	81.822	159.7120
3350.000000	81.626	158.1427
3400.000000	81.429	156.7289
3450.000000	81.238	155.4875
3500.000000	81.052	154.3561
3550.000000	80.869	153.2266
3600.000000	80.691	152.0441
3650.000000	80.519	150.8742
3700.000000	80.361	149.8673
3750.000000	80.224	149.0809
3820.000000	80.056	148.1078
3870.000000	79.941	147.3768
3950.000000	79.778	146.3054
4000.000000	79.694	145.7988
4060.000000	79.618	145.4229
4120.000000	79.563	145.3666
4180.000000	79.536	145.8383
4250.000000	79.552	147.2081
4310.000000	79.596	148.7198
4370.000000	79.663	150.0913
4440.000000	79.768	151.2265
4500.000000	79.882	151.7639
4550.000000	79.994	151.9803
4620.000000	80.178	152.0608
4680.000000	80.360	151.8827
4750.000000	80.591	151.0917
4820.000000	80.830	149.3305
4870.000000	81.000	147.4039
4940.000000	81.228	143.8254
5000.000000	81.402	140.0742
5080.000000	81.592	134.4376
5150.000000	81.716	129.2534
5220.000000	81.799	124.0979
5300.000000	81.840	118.3677
5380.000000	81.815	112.7656
5450.000000	81.733	107.9198
5520.000000	81.591	103.1731
5600.000000	81.354	98.0712
5700.000000	80.968	92.5104
5800.000000	80.530	87.6399
5900.000000	80.033	82.7780
6000.000000	79.397	78.1408
6080.000000	78.779	75.2622
6150.000000	78.175	73.8199
6220.000000	77.536	73.6667
6300.000000	76.807	75.1895
6400.000000	75.987	79.0181
6500.000000	75.312	83.4499
6600.000000	74.717	87.7319
6700.000000	74.185	92.4030
6800.000000	73.767	98.0270
6900.000000	73.502	104.5325
7000.000000	73.399	111.4423
7100.000000	73.467	118.4359
7200.000000	73.701	125.3712
7300.000000	74.086	132.1184
7400.000000	74.615	138.6199
7500.000000	75.271	144.5667
7620.000000	76.175	150.2037
7750.000000	77.209	153.8520
7880.000000	78.156	154.3403
8000.000000	78.803	151.9621
8120.000000	79.126	147.9577
8250.000000	79.040	143.3095
8380.000000	78.514	139.8030
8500.000000	77.728	138.9409
8620.000000	76.771	141.2635
8750.000000	75.659	147.1884
8850.000000	74.809	153.4178
9000.000000	73.611	163.6482
9120.000000	72.740	171.4061
9250.000000	71.896	178.9978
9380.000000	71.154	-174.2182
9500.000000	70.548	-168.6205
9620.000000	70.015	-163.5247
9750.000000	69.509	-158.5392
9880.000000	69.070	-154.2795
10000.000000	68.712	-151.1904
10150.000000	68.313	-148.4573
10300.000000	67.969	-146.2859
10440.000000	67.702	-144.0887
10600.000000	67.463	-141.0818
10750.000000	67.307	-137.8538
10900.000000	67.218	-134.6722
11060.000000	67.192	-131.9907
11200.000000	67.221	-130.3110
11380.000000	67.331	-128.3468
11500.000000	67.452	-126.7506
11720.000000	67.782	-122.8883
11800.000000	67.938	-121.1902
12060.000000	68.597	-114.8371
12200.000000	69.057	-111.2051
12410.000000	69.904	-106.4272
12500.000000	70.327	-105.0051
12650.000000	71.107	-103.9298
12800.000000	71.963	-104.8151
13150.000000	73.982	-114.8672
13200.000000	74.234	-117.0950
13400.000000	75.031	-127.5117
13600.000000	75.360	-139.1238
13800.000000	75.141	-149.6412
14000.000000	74.414	-157.4052
14300.000000	72.650	-164.3148
14500.000000	71.267	-166.8619
14750.000000	69.602	-167.5359
15000.000000	68.226	-165.0923
15250.000000	67.251	-160.5853
15500.000000	66.708	-155.6663
15750.000000	66.563	-151.6119
16000.000000	66.716	-148.8569
16250.000000	66.995	-148.7236
16500.000000	67.166	-152.6443
16750.000000	67.000	-160.2249
17000.000000	66.360	-169.4519
17250.000000	65.264	-178.1096
17500.000000	63.855	175.0806
17750.000000	62.304	170.0959
18000.000000	60.753	166.2209
18250.000000	59.292	162.6842
18500.000000	57.972	159.3892
18750.000000	56.805	156.9235
19000.000000	55.764	155.4746
19250.000000	54.817	154.7374
19500.000000	53.973	154.2795
19750.000000	53.309	153.7444
20000.000000	52.945	153.2823
