* Measurement data measured by REW V5.31.1
* Source: Microphone (4- USB Audio Device), MICROPHONE (Master Volume), R, volume: 0.900
* Format: 256k Log Swept Sine, 1 sweep at -12.0 dBFS with no timing reference
* Dated: 12-Jun-2024 14:12:51
* REW Settings:
*  C-weighting compensation: Off
*  Target level: 75.0 dB
* Note: 
* Measurement: Vivo TWS4 CV L
* Smoothing: 1/12 octave
* Frequency Step: 1/48 octave
* Start Frequency: 20.300 Hz
*
* Freq(Hz)	SPL(dB)	Phase(degrees)
20.299999	72.476	107.1660
20.600000	72.600	106.2755
20.900000	72.760	105.1205
21.200001	72.935	103.8258
21.400000	73.053	102.9150
21.799999	73.284	101.0393
22.000000	73.395	100.1003
22.400000	73.608	98.2702
22.700001	73.763	96.9576
23.000000	73.916	95.6913
23.299999	74.068	94.4533
23.600000	74.218	93.2225
24.000000	74.412	91.5669
24.299999	74.552	90.3085
24.700001	74.728	88.6151
25.000000	74.855	87.3431
25.400000	75.018	85.6579
25.799999	75.176	83.9945
26.200001	75.331	82.3572
26.500000	75.446	81.1447
26.900000	75.595	79.5430
27.200001	75.704	78.3481
27.600000	75.841	76.7591
28.000000	75.966	75.1766
28.500000	76.103	73.2214
29.000000	76.223	71.3085
29.500000	76.334	69.4410
30.000000	76.446	67.6046
30.400000	76.539	66.1470
30.700001	76.610	65.0583
31.100000	76.705	63.6164
31.500000	76.797	62.1941
32.000000	76.900	60.4615
32.500000	76.988	58.7941
33.000000	77.063	57.1893
33.500000	77.131	55.6214
34.000000	77.197	54.0558
34.500000	77.262	52.4752
35.000000	77.323	50.8943
35.500000	77.377	49.3476
36.000000	77.426	47.8585
36.500000	77.470	46.4201
37.000000	77.513	45.0022
37.500000	77.551	43.5786
38.200001	77.598	41.5771
38.700001	77.626	40.1721
39.500000	77.666	38.0156
40.000000	77.688	36.7259
40.599998	77.709	35.2326
41.200001	77.725	33.8067
41.799999	77.741	32.4487
42.500000	77.767	30.9050
43.099998	77.791	29.5683
43.700001	77.808	28.2197
44.400002	77.816	26.6878
45.000000	77.818	25.4418
45.500000	77.819	24.4414
46.200001	77.818	23.0683
46.799999	77.810	21.9080
47.500000	77.793	20.5737
48.200001	77.776	19.2571
48.700001	77.765	18.3368
49.400002	77.756	17.1077
50.000000	77.756	16.1201
50.799999	77.764	14.8552
51.500000	77.768	13.7502
52.200001	77.764	12.6402
53.000000	77.752	11.3867
53.799999	77.733	10.1742
54.500000	77.713	9.1633
55.200001	77.693	8.1901
56.000000	77.672	7.0865
57.000000	77.649	5.7051
58.000000	77.629	4.3747
59.000000	77.612	3.1102
60.000000	77.596	1.8816
60.799999	77.584	0.9178
61.500000	77.574	0.0885
62.200001	77.563	-0.7317
63.000000	77.549	-1.6616
64.000000	77.527	-2.8075
65.000000	77.507	-3.9306
66.000000	77.491	-5.0436
67.000000	77.479	-6.1540
68.000000	77.468	-7.2489
69.000000	77.457	-8.3066
70.000000	77.442	-9.3192
71.000000	77.425	-10.3008
72.000000	77.405	-11.2711
73.000000	77.386	-12.2421
74.000000	77.368	-13.2192
75.000000	77.350	-14.1979
76.199997	77.324	-15.3513
77.500000	77.293	-16.5585
78.800003	77.261	-17.7165
80.000000	77.234	-18.7470
81.199997	77.211	-19.7530
82.500000	77.186	-20.8390
83.800003	77.161	-21.9544
85.000000	77.136	-23.0040
86.199997	77.107	-24.0352
87.500000	77.075	-25.1180
88.500000	77.051	-25.9369
90.000000	77.014	-27.1325
91.199997	76.985	-28.0572
92.500000	76.953	-29.0475
93.800003	76.920	-30.0348
95.000000	76.888	-30.9537
96.199997	76.857	-31.8949
97.500000	76.827	-32.9271
98.800003	76.797	-33.9354
100.000000	76.770	-34.8274
101.500000	76.732	-35.8974
103.000000	76.691	-36.9407
104.400002	76.651	-37.9176
106.000000	76.610	-39.0525
107.500000	76.576	-40.1227
109.000000	76.542	-41.1848
110.599998	76.501	-42.2819
112.000000	76.462	-43.1939
113.800003	76.407	-44.3259
115.000000	76.371	-45.0849
117.199997	76.310	-46.4972
118.000000	76.290	-47.0065
120.599998	76.226	-48.6171
122.000000	76.189	-49.4579
124.099998	76.128	-50.6942
125.000000	76.100	-51.2220
126.500000	76.050	-52.1093
128.000000	76.003	-52.9999
131.500000	75.915	-54.9980
132.000000	75.904	-55.2735
134.000000	75.857	-56.3670
136.000000	75.807	-57.4712
138.000000	75.760	-58.5750
140.000000	75.713	-59.6293
143.000000	75.642	-61.1300
145.000000	75.597	-62.1143
147.500000	75.544	-63.3466
150.000000	75.494	-64.5900
152.500000	75.441	-65.8291
155.000000	75.381	-67.0743
157.500000	75.319	-68.3064
160.000000	75.260	-69.4838
162.500000	75.204	-70.6378
165.000000	75.148	-71.8019
167.500000	75.089	-72.9410
170.000000	75.030	-74.0359
172.500000	74.975	-75.1138
175.000000	74.921	-76.2117
177.500000	74.867	-77.3330
180.000000	74.812	-78.4645
182.500000	74.753	-79.5892
185.000000	74.695	-80.6860
187.500000	74.641	-81.7542
190.000000	74.594	-82.7908
192.500000	74.554	-83.7840
195.000000	74.516	-84.7413
197.500000	74.480	-85.6789
200.000000	74.443	-86.6177
203.000000	74.404	-87.7533
206.000000	74.370	-88.8732
209.000000	74.341	-89.9924
212.000000	74.313	-91.1210
214.000000	74.293	-91.8731
218.000000	74.257	-93.3653
220.000000	74.239	-94.1008
224.000000	74.205	-95.5418
227.000000	74.180	-96.6025
230.000000	74.155	-97.6491
233.000000	74.128	-98.6790
236.000000	74.100	-99.6933
240.000000	74.059	-101.0445
243.000000	74.029	-102.0678
247.000000	73.990	-103.4405
250.000000	73.961	-104.4844
254.000000	73.922	-105.8961
258.000000	73.885	-107.3247
262.000000	73.847	-108.7629
265.000000	73.815	-109.8437
269.000000	73.764	-111.2813
272.000000	73.721	-112.3460
276.000000	73.663	-113.7212
280.000000	73.607	-115.0265
285.000000	73.547	-116.5901
290.000000	73.504	-118.1254
295.000000	73.473	-119.6417
300.000000	73.450	-121.1540
304.000000	73.436	-122.3892
307.000000	73.427	-123.3435
311.000000	73.414	-124.6585
315.000000	73.394	-126.0057
320.000000	73.363	-127.6988
325.000000	73.335	-129.3910
330.000000	73.310	-131.0644
335.000000	73.285	-132.7271
340.000000	73.261	-134.4218
345.000000	73.234	-136.1361
350.000000	73.204	-137.8260
355.000000	73.174	-139.4649
360.000000	73.144	-141.0660
365.000000	73.111	-142.6657
370.000000	73.079	-144.2958
375.000000	73.046	-145.9377
382.000000	73.000	-148.1711
387.000000	72.967	-149.7095
395.000000	72.920	-152.1254
400.000000	72.899	-153.6124
406.000000	72.877	-155.3371
412.000000	72.845	-156.9793
418.000000	72.800	-158.5352
425.000000	72.746	-160.2870
431.000000	72.706	-161.7555
437.000000	72.668	-163.1538
444.000000	72.627	-164.6577
450.000000	72.595	-165.8686
455.000000	72.568	-166.8639
462.000000	72.530	-168.2581
468.000000	72.497	-169.4400
475.000000	72.457	-170.8105
482.000000	72.417	-172.1866
487.000000	72.390	-173.1806
494.000000	72.357	-174.5936
500.000000	72.333	-175.8103
508.000000	72.302	-177.3888
515.000000	72.275	-178.7206
522.000000	72.245	179.9648
530.000000	72.201	178.4714
538.000000	72.152	177.0175
545.000000	72.111	175.7776
552.000000	72.076	174.5609
560.000000	72.044	173.2267
570.000000	72.009	171.6532
580.000000	71.973	170.1189
590.000000	71.936	168.5673
600.000000	71.904	167.0054
608.000000	71.880	165.7452
615.000000	71.859	164.6128
622.000000	71.836	163.4562
630.000000	71.813	162.1461
640.000000	71.793	160.5941
650.000000	71.788	159.1635
660.000000	71.790	157.8299
670.000000	71.789	156.5629
680.000000	71.784	155.3833
690.000000	71.783	154.2887
700.000000	71.789	153.2650
710.000000	71.801	152.3173
720.000000	71.813	151.4440
730.000000	71.826	150.6050
740.000000	71.843	149.7493
750.000000	71.865	148.8427
762.000000	71.897	147.6919
775.000000	71.936	146.4686
788.000000	71.984	145.3063
800.000000	72.038	144.2527
812.000000	72.096	143.1964
825.000000	72.161	142.0001
838.000000	72.229	140.7590
850.000000	72.293	139.5969
862.000000	72.360	138.4275
875.000000	72.440	137.1512
885.000000	72.505	136.1436
900.000000	72.604	134.5254
912.000000	72.688	133.0908
925.000000	72.784	131.3867
938.000000	72.884	129.5605
950.000000	72.977	127.7875
962.000000	73.071	125.9440
975.000000	73.174	123.8911
988.000000	73.280	121.8017
1000.000000	73.381	119.8336
1015.000000	73.510	117.3197
1030.000000	73.642	114.7452
1044.000000	73.764	112.2583
1060.000000	73.902	109.2855
1075.000000	74.031	106.3865
1090.000000	74.163	103.4177
1106.000000	74.302	100.1796
1120.000000	74.425	97.2652
1138.000000	74.585	93.3833
1150.000000	74.694	90.7079
1172.000000	74.893	85.6193
1180.000000	74.965	83.6997
1206.000000	75.189	77.1489
1220.000000	75.302	73.4461
1241.000000	75.460	67.7366
1250.000000	75.523	65.2487
1265.000000	75.621	61.0538
1280.000000	75.711	56.7883
1315.000000	75.893	46.5980
1320.000000	75.917	45.1310
1340.000000	76.013	39.2863
1360.000000	76.107	33.5236
1380.000000	76.200	27.8262
1400.000000	76.294	22.1589
1430.000000	76.449	13.7433
1450.000000	76.560	8.2480
1475.000000	76.716	1.4968
1500.000000	76.896	-5.1453
1525.000000	77.094	-11.7188
1550.000000	77.290	-18.3057
1575.000000	77.467	-24.9005
1600.000000	77.630	-31.3796
1625.000000	77.788	-37.6050
1650.000000	77.940	-43.4997
1675.000000	78.085	-49.0673
1700.000000	78.227	-54.3557
1725.000000	78.363	-59.4470
1750.000000	78.493	-64.4066
1775.000000	78.618	-69.2146
1800.000000	78.739	-73.8296
1825.000000	78.862	-78.2272
1850.000000	78.984	-82.3911
1875.000000	79.107	-86.3029
1900.000000	79.237	-89.9441
1925.000000	79.375	-93.3405
1950.000000	79.519	-96.5543
1975.000000	79.668	-99.6397
2000.000000	79.820	-102.6227
2030.000000	80.005	-106.0911
2060.000000	80.186	-109.4414
2090.000000	80.360	-112.6660
2120.000000	80.527	-115.7917
2140.000000	80.634	-117.8486
2180.000000	80.837	-121.8875
2200.000000	80.934	-123.8241
2240.000000	81.117	-127.3445
2270.000000	81.249	-129.5304
2300.000000	81.381	-131.2738
2330.000000	81.515	-132.6094
2360.000000	81.647	-133.6599
2400.000000	81.816	-134.9169
2430.000000	81.935	-135.9558
2470.000000	82.076	-137.6462
2500.000000	82.169	-139.1119
2540.000000	82.280	-141.1154
2580.000000	82.379	-142.9915
2620.000000	82.462	-144.7338
2650.000000	82.512	-146.0204
2690.000000	82.556	-147.8114
2720.000000	82.573	-149.2552
2760.000000	82.576	-151.3157
2800.000000	82.560	-153.4667
2850.000000	82.517	-156.1596
2900.000000	82.458	-158.7374
2950.000000	82.387	-161.2133
3000.000000	82.292	-163.7203
3040.000000	82.202	-165.7407
3070.000000	82.128	-167.1964
3110.000000	82.019	-168.9756
3150.000000	81.895	-170.5202
3200.000000	81.728	-172.0998
3250.000000	81.555	-173.3928
3300.000000	81.376	-174.6963
3350.000000	81.184	-176.2936
3400.000000	80.982	-178.2062
3450.000000	80.783	179.7762
3500.000000	80.590	177.8368
3550.000000	80.400	176.0732
3600.000000	80.217	174.5553
3650.000000	80.048	173.2487
3700.000000	79.886	172.0112
3750.000000	79.730	170.7742
3820.000000	79.529	169.1598
3870.000000	79.399	168.1376
3950.000000	79.218	166.6259
4000.000000	79.122	165.6229
4060.000000	79.023	164.2019
4120.000000	78.947	162.6322
4180.000000	78.900	161.1859
4250.000000	78.887	159.8942
4310.000000	78.910	159.2418
4370.000000	78.964	159.1282
4440.000000	79.066	159.6768
4500.000000	79.183	160.5330
4550.000000	79.298	161.3330
4620.000000	79.486	162.3203
4680.000000	79.670	162.8747
4750.000000	79.913	163.2067
4820.000000	80.191	163.4279
4870.000000	80.407	163.5616
4940.000000	80.720	163.5714
5000.000000	80.984	163.2877
5080.000000	81.320	162.5219
5150.000000	81.587	161.6039
5220.000000	81.818	160.5664
5300.000000	82.027	159.3622
5380.000000	82.164	158.2492
5450.000000	82.216	157.3483
5520.000000	82.192	156.5234
5600.000000	82.079	155.8552
5700.000000	81.837	155.6707
5800.000000	81.561	156.1754
5900.000000	81.288	157.0288
6000.000000	80.969	158.0135
6080.000000	80.684	158.9901
6150.000000	80.434	160.1286
6220.000000	80.200	161.6705
6300.000000	79.986	164.0781
6400.000000	79.860	167.9102
6500.000000	79.873	171.9450
6600.000000	79.914	175.8315
6700.000000	79.946	179.2727
6800.000000	80.002	-178.1860
6900.000000	80.117	-176.6884
7000.000000	80.309	-175.9130
7100.000000	80.590	-175.3037
7200.000000	80.958	-174.6154
7300.000000	81.411	-173.9307
7400.000000	81.948	-173.4366
7500.000000	82.557	-173.5382
7620.000000	83.331	-175.2773
7750.000000	84.127	-179.7764
7880.000000	84.738	173.0668
8000.000000	85.007	164.7727
8120.000000	84.893	155.7159
8250.000000	84.306	146.1637
8380.000000	83.304	138.1117
8500.000000	82.124	132.7803
8620.000000	80.817	129.7115
8750.000000	79.369	128.6907
8850.000000	78.283	129.1382
9000.000000	76.759	130.9605
9120.000000	75.650	132.7878
9250.000000	74.563	134.6058
9380.000000	73.588	136.0845
9500.000000	72.778	137.3376
9620.000000	72.050	138.9343
9750.000000	71.350	141.5809
9880.000000	70.736	145.3192
10000.000000	70.231	149.4056
10150.000000	69.669	154.5697
10300.000000	69.170	158.8110
10440.000000	68.754	161.6757
10600.000000	68.346	164.4637
10750.000000	68.041	167.4743
10900.000000	67.813	171.1596
11060.000000	67.650	175.6904
11200.000000	67.571	-179.8856
11380.000000	67.552	-173.5348
11500.000000	67.585	-169.0333
11720.000000	67.736	-160.4845
11800.000000	67.823	-157.1725
12060.000000	68.251	-145.4634
12200.000000	68.581	-138.8148
12410.000000	69.223	-129.1120
12500.000000	69.556	-125.3367
12650.000000	70.189	-120.0458
12800.000000	70.909	-116.5197
13150.000000	72.757	-116.5605
13200.000000	73.014	-117.4043
13400.000000	73.939	-122.4368
13600.000000	74.570	-129.9143
13800.000000	74.781	-139.3740
14000.000000	74.512	-149.7690
14300.000000	73.289	-163.3899
14500.000000	72.101	-169.2905
14750.000000	70.491	-172.3939
15000.000000	69.026	-171.5073
15250.000000	67.903	-168.2522
15500.000000	67.207	-164.3531
15750.000000	66.925	-161.3787
16000.000000	66.954	-161.0944
16250.000000	67.109	-164.4040
16500.000000	67.149	-170.4970
16750.000000	66.844	-177.9817
17000.000000	66.066	174.7998
17250.000000	64.844	169.5410
17500.000000	63.326	167.2218
17750.000000	61.697	167.9921
18000.000000	60.104	171.1548
18250.000000	58.624	175.7831
18500.000000	57.289	-178.8439
18750.000000	56.098	-173.1495
19000.000000	55.028	-167.0425
19250.000000	54.063	-160.1614
19500.000000	53.219	-152.8254
19750.000000	52.565	-146.3048
20000.000000	52.205	-142.3578
